#                                                     Mon Jul 29 20:38:06 2019
#          I------------------------------------------------------------------------------------------------------------------------I
#          I                                                                                                                        I
#          I      BC_GALAXEV  ---  MODEL PARAMETERS:   Generic file name for this model = cb2018_z004_chab_hr_smiles_ssp            I
#          I                                                                                                                        I
#          I      TRACKS: Padova 2013 + Marigo 2013, X=0.740, Y=0.256, Z=0.004                                                      I
#          I                                                                                                                        I
#          I      S.F.R.: SSP = Zero Length Burst at t = 0                                                                          I
#          I                                                                                                                        I
#          I                                                                                                                        I
#          I      I.M.F.: Lognormal + power law                                                                                     I
#          I                                                                      mass in      number                               I
#          I                                                  from m     to m     segment    of stars      c                        I
#          I                                        lognormal   0.10     1.00      0.4057      1.3076                               I
#          I                                          x=1.3     1.00   100.00      0.5943      0.1827                               I
#          I                                                                                                                        I
#          I                                                           totals      1.0000      1.4903  0.6710 Mo/star               I
#          I                                                                                                                        I
#          I                                                                                                                        I
#          I                                                                                                                        I
#          I                                                                                                                        I
#          I      LISTED: Rest frame properties                                                                                     I
#          I                                                                                                                        I
#          I                                                                                                                        I
#          I                              (C) 1995-2017 G. Bruzual A. & S. Charlot - All Rights Reserved                            I
#          I------------------------------------------------------------------------------------------------------------------------I
#
#    (1)        (2)      (3)      (4)      (5)      (6)      (7)       (8)        (9)        (10)      (11)      (12)      (13)      (14)      (15)
#
# Index_No.    WO-1:    WO-2:    WO-3:    WO-4:    GC-1:    4000A    DTT-Ca1    DTT-Ca2    DTT-Ca3   DTT-MgI     DM-04     DM-04     DM-04       BH:
# log-age    HdeltaA  HgammaA  HdeltaF  HgammaF  D(4000)    B4_VN   CaII8498   CaII8542   CaII8662   MgI8807   H8_3889   H9_3835  H10_3798     BH-HK
#   (yr)        (A)      (A)      (A)      (A)       .        .         (A)        (A)        (A)       (A)       (A)       (A)       (A)        (A)
  4.000000    4.2959   4.5542   3.1900   3.6608   0.9547   0.9693   999.0000   999.0000   999.0000  999.0000    3.7201    2.4644    1.4617    0.0602
  4.301030    4.2959   4.5542   3.1900   3.6608   0.9547   0.9693   999.0000   999.0000   999.0000  999.0000    3.7201    2.4644    1.4617    0.0602
  4.477121    4.2959   4.5542   3.1900   3.6608   0.9547   0.9693   999.0000   999.0000   999.0000  999.0000    3.7201    2.4644    1.4617    0.0602
  4.602060    4.2959   4.5542   3.1900   3.6608   0.9547   0.9693   999.0000   999.0000   999.0000  999.0000    3.7201    2.4644    1.4617    0.0602
  4.698970    4.2959   4.5542   3.1900   3.6608   0.9547   0.9693   999.0000   999.0000   999.0000  999.0000    3.7201    2.4644    1.4617    0.0602
  4.778151    4.2959   4.5542   3.1900   3.6608   0.9547   0.9693   999.0000   999.0000   999.0000  999.0000    3.7201    2.4644    1.4617    0.0602
  4.845098    4.2908   4.5494   3.1864   3.6572   0.9547   0.9694   999.0000   999.0000   999.0000  999.0000    3.7187    2.4611    1.4598    0.0601
  4.903090    4.2511   4.5269   3.1553   3.6417   0.9539   0.9691   999.0000   999.0000   999.0000  999.0000    3.6997    2.4391    1.4461    0.0597
  4.954243    4.3155   4.5662   3.2032   3.6688   0.9550   0.9694   999.0000   999.0000   999.0000  999.0000    3.7348    2.4776    1.4683    0.0605
  5.000000    4.4294   4.6365   3.2883   3.7171   0.9568   0.9697   999.0000   999.0000   999.0000  999.0000    3.7969    2.5456    1.5076    0.0619
  5.060698    4.4336   4.6371   3.2914   3.7173   0.9568   0.9697   999.0000   999.0000   999.0000  999.0000    3.7989    2.5473    1.5079    0.0619
  5.113944    4.4295   4.6276   3.2901   3.7108   0.9570   0.9699   999.0000   999.0000   999.0000  999.0000    3.8034    2.5416    1.5042    0.0618
  5.161368    4.4253   4.6245   3.2869   3.7086   0.9569   0.9699   999.0000   999.0000   999.0000  999.0000    3.8009    2.5390    1.5024    0.0618
  5.204120    4.4242   4.6236   3.2861   3.7080   0.9569   0.9699   999.0000   999.0000   999.0000  999.0000    3.8002    2.5383    1.5020    0.0618
  5.243038    4.4217   4.6219   3.2842   3.7068   0.9568   0.9699   999.0000   999.0000   999.0000  999.0000    3.7988    2.5367    1.5009    0.0617
  5.255272    4.4204   4.6210   3.2837   3.7066   0.9569   0.9699   999.0000   999.0000   999.0000  999.0000    3.7997    2.5350    1.4999    0.0617
  5.278754    4.4180   4.6190   3.2835   3.7068   0.9571   0.9701   999.0000   999.0000   999.0000  999.0000    3.8042    2.5308    1.4972    0.0616
  5.301030    4.4151   4.6169   3.2815   3.7054   0.9571   0.9701   999.0000   999.0000   999.0000  999.0000    3.8032    2.5287    1.4959    0.0616
  5.397940    4.4136   4.6136   3.2801   3.7028   0.9569   0.9700   999.0000   999.0000   999.0000  999.0000    3.8009    2.5270    1.4938    0.0616
  5.477121    4.4060   4.6169   3.2776   3.7108   0.9574   0.9705   999.0000   999.0000   999.0000  999.0000    3.8143    2.5168    1.4876    0.0614
  5.544068    4.3952   4.6092   3.2693   3.7054   0.9571   0.9704   999.0000   999.0000   999.0000  999.0000    3.8076    2.5101    1.4831    0.0613
  5.602060    4.3864   4.6032   3.2626   3.7012   0.9569   0.9704   999.0000   999.0000   999.0000  999.0000    3.8022    2.5046    1.4795    0.0612
  5.653213    4.3786   4.5977   3.2567   3.6973   0.9568   0.9703   999.0000   999.0000   999.0000  999.0000    3.7974    2.4998    1.4764    0.0611
  5.698970    4.3692   4.5914   3.2495   3.6930   0.9566   0.9702   999.0000   999.0000   999.0000  999.0000    3.7918    2.4941    1.4726    0.0610
  5.740363    4.3637   4.5867   3.2453   3.6895   0.9564   0.9702   999.0000   999.0000   999.0000  999.0000    3.7880    2.4906    1.4702    0.0609
  5.778151    4.3545   4.5804   3.2383   3.6850   0.9562   0.9701   999.0000   999.0000   999.0000  999.0000    3.7824    2.4849    1.4665    0.0608
  5.812913    4.3440   4.5736   3.2303   3.6804   0.9560   0.9700   999.0000   999.0000   999.0000  999.0000    3.7762    2.4785    1.4623    0.0606
  5.845098    4.3374   4.5688   3.2252   3.6770   0.9559   0.9700   999.0000   999.0000   999.0000  999.0000    3.7720    2.4745    1.4596    0.0605
  5.875061    4.4914   4.6594   3.3396   3.7373   0.9580   0.9703   999.0000   999.0000   999.0000  999.0000    3.8503    2.5673    1.5128    0.0624
  5.903090    4.4999   4.6633   3.3457   3.7396   0.9581   0.9702   999.0000   999.0000   999.0000  999.0000    3.8536    2.5724    1.5154    0.0625
  5.929419    4.4890   4.6559   3.3374   3.7344   0.9579   0.9702   999.0000   999.0000   999.0000  999.0000    3.8471    2.5658    1.5112    0.0624
  5.954243    4.4777   4.6479   3.3287   3.7286   0.9576   0.9701   999.0000   999.0000   999.0000  999.0000    3.8401    2.5590    1.5067    0.0622
  5.977724    4.4703   4.6423   3.3230   3.7246   0.9575   0.9700   999.0000   999.0000   999.0000  999.0000    3.8352    2.5544    1.5037    0.0621
  6.000000    4.4559   4.6324   3.3120   3.7175   0.9572   0.9699   999.0000   999.0000   999.0000  999.0000    3.8264    2.5457    1.4982    0.0619
  6.041393    4.4383   4.6189   3.2982   3.7077   0.9567   0.9697   999.0000   999.0000   999.0000  999.0000    3.8147    2.5348    1.4906    0.0617
  6.079181    4.5721   4.6961   3.3970   3.7586   0.9585   0.9699   999.0000   999.0000   999.0000  999.0000    3.8811    2.6153    1.5359    0.0633
  6.113944    4.6671   4.7518   3.4672   3.7955   0.9598   0.9700   999.0000   999.0000   999.0000  999.0000    3.9287    2.6728    1.5683    0.0644
  6.146128    4.8864   4.8835   3.6298   3.8841   0.9629   0.9704   999.0000   999.0000   999.0000  999.0000    4.0419    2.8057    1.6445    0.0671
  6.176091    5.3468   5.1693   3.9723   4.0787   0.9698   0.9714   999.0000   999.0000   999.0000  999.0000    4.2873    3.0880    1.8087    0.0728
  6.204120    5.5044   5.2655   4.0896   4.1440   0.9721   0.9717   999.0000   999.0000   999.0000  999.0000    4.3705    3.1844    1.8642    0.0747
  6.230449    5.4921   5.2521   4.0799   4.1341   0.9716   0.9714   999.0000   999.0000   999.0000  999.0000    4.3606    3.1746    1.8558    0.0745
  6.255272    5.4797   5.2385   4.0698   4.1239   0.9710   0.9712   999.0000   999.0000   999.0000  999.0000    4.3503    3.1644    1.8469    0.0743
  6.278754    5.4751   5.2335   4.0660   4.1201   0.9708   0.9711   999.0000   999.0000   999.0000  999.0000    4.3464    3.1606    1.8436    0.0742
  6.301030    5.4655   5.2229   4.0582   4.1122   0.9704   0.9708   999.0000   999.0000   999.0000  999.0000    4.3384    3.1527    1.8366    0.0740
  6.322219    5.4506   5.2067   4.0463   4.1000   0.9697   0.9705   999.0000   999.0000   999.0000  999.0000    4.3262    3.1406    1.8262    0.0737
  6.342422    5.4363   5.1911   4.0348   4.0883   0.9691   0.9702   999.0000   999.0000   999.0000  999.0000    4.3145    3.1290    1.8161    0.0735
  6.361728    5.4246   5.1782   4.0253   4.0787   0.9686   0.9699   999.0000   999.0000   999.0000  999.0000    4.3048    3.1194    1.8078    0.0733
  6.380211    5.4119   5.1643   4.0150   4.0683   0.9681   0.9696   999.0000   999.0000   999.0000  999.0000    4.2943    3.1091    1.7987    0.0731
  6.397940    5.3975   5.1484   4.0033   4.0563   0.9674   0.9693   999.0000   999.0000   999.0000  999.0000    4.2823    3.0972    1.7884    0.0728
  6.414973    5.3772   5.1262   3.9870   4.0397   0.9666   0.9689   999.0000   999.0000   999.0000  999.0000    4.2656    3.0807    1.7741    0.0725
  6.431364    5.3529   5.0995   3.9673   4.0197   0.9655   0.9683   999.0000   999.0000   999.0000  999.0000    4.2456    3.0609    1.7569    0.0720
  6.447158    5.5222   5.2961   4.1439   4.1956   0.9737   0.9718   999.0000   999.0000   999.0000  999.0000    4.4281    3.2564    1.9548    0.0746
  6.462398    6.6158   6.4265   5.0258   5.0872   1.0301   1.0040   999.0000   999.0000   999.0000  999.0000    5.3383    4.1500    2.6929    0.0995
  6.477121    6.6779   6.4553   5.1300   5.1870   1.0521   1.0193   999.0000   999.0000   999.0000  999.0000    5.4651    4.3387    2.8638    0.1094
  6.491362    6.8774   6.4939   5.3865   5.3944   1.1237   1.0687   999.0000   999.0000   999.0000  999.0000    5.8248    4.8748    3.3056    0.1393
  6.505150    6.0850   5.5634   4.8785   4.8612   1.1377   1.0853   999.0000   999.0000   999.0000  999.0000    5.3478    4.5956    3.0982    0.1445
  6.518514    5.1800   4.3352   4.2775   4.1828   1.1814   1.1279   999.0000   999.0000   999.0000  999.0000    4.8584    4.3693    2.8914    0.1617
  6.531479    4.7504   3.6232   3.9387   3.7239   1.1855   1.1344   999.0000   999.0000   999.0000  999.0000    4.6366    4.2366    2.6946    0.1590
  6.544068    4.5507   3.1616   3.7727   3.4491   1.1992   1.1479   999.0000   999.0000   999.0000  999.0000    4.5992    4.2437    2.5898    0.1609
  6.556303    4.0055   2.2730   3.3974   2.9079   1.2037   1.1558   999.0000   999.0000   999.0000  999.0000    4.4030    4.1455    2.4201    0.1553
  6.568202    3.3473   1.2156   3.0054   2.2907   1.2350   1.1853   999.0000   999.0000   999.0000  999.0000    4.2051    4.1596    2.2605    0.1577
  6.579783    2.4848   0.0180   2.4648   1.6346   1.2744   1.2258   999.0000   999.0000   999.0000  999.0000    3.7970    4.0088    1.9962    0.1670
  6.591064    3.2744   1.3377   3.0421   2.4816   1.2752   1.2184   999.0000   999.0000   999.0000  999.0000    4.1512    4.2468    2.3569    0.1790
  6.602060    3.0150   0.7252   2.7652   2.1196   1.3001   1.2425   999.0000   999.0000   999.0000  999.0000    4.0028    4.2334    2.1876    0.1864
  6.612784    3.6244   1.7598   3.1739   2.7300   1.2909   1.2270   999.0000   999.0000   999.0000  999.0000    4.1727    4.3366    2.3938    0.1917
  6.623249    4.1216   2.6153   3.4774   3.1685   1.2601   1.1941   999.0000   999.0000   999.0000  999.0000    4.2464    4.3466    2.4937    0.1846
  6.633469    3.7194   2.2309   3.2017   2.9132   1.2550   1.1927   999.0000   999.0000   999.0000  999.0000    3.9148    4.1425    2.3215    0.1811
  6.643453    4.0779   2.7895   3.5018   3.2899   1.2504   1.1868   999.0000   999.0000   999.0000  999.0000    4.1805    4.2580    2.5215    0.1827
  6.653213    4.9115   4.0844   4.2037   4.1725   1.2394   1.1734   999.0000   999.0000   999.0000  999.0000    4.7668    4.5527    2.9859    0.1868
  6.662758    5.0858   4.2835   4.2890   4.2581   1.2355   1.1675   999.0000   999.0000   999.0000  999.0000    4.8541    4.5826    3.0042    0.1838
  6.672098    5.5736   4.7831   4.5814   4.5328   1.2360   1.1624   999.0000   999.0000   999.0000  999.0000    5.1720    4.7880    3.1395    0.1829
  6.681241    6.7410   6.0278   5.3328   5.2686   1.2374   1.1527   999.0000   999.0000   999.0000  999.0000    5.9541    5.3106    3.5195    0.1835
  6.690196    7.0377   6.2902   5.5312   5.4385   1.2385   1.1521   999.0000   999.0000   999.0000  999.0000    6.1861    5.4805    3.6197    0.1844
  6.698970    5.0024   3.8268   4.1065   3.8991   1.2408   1.1713   999.0000   999.0000   999.0000  999.0000    4.8375    4.6009    2.8276    0.1794
  6.720160    5.2636   4.0476   4.2517   4.0010   1.2289   1.1592   999.0000   999.0000   999.0000  999.0000    5.0071    4.6961    2.8911    0.1742
  6.740363    5.6061   4.5585   4.5036   4.2920   1.2062   1.1379   999.0000   999.0000   999.0000  999.0000    5.2133    4.7706    3.0299    0.1654
  6.759668    5.9678   5.0897   4.7641   4.5901   1.1802   1.1146   999.0000   999.0000   999.0000  999.0000    5.4266    4.8352    3.1560    0.1551
  6.778151    6.2016   5.4051   4.9321   4.7661   1.1631   1.0994   999.0000   999.0000   999.0000  999.0000    5.5782    4.8914    3.2404    0.1479
  6.795880    6.3697   5.6526   5.0535   4.8978   1.1452   1.0845   999.0000   999.0000   999.0000  999.0000    5.6772    4.9068    3.2908    0.1403
  6.812913    6.7012   6.0623   5.2721   5.1347   1.1402   1.0782   999.0000   999.0000   999.0000  999.0000    5.8774    5.0190    3.3944    0.1387
  6.829304    6.7743   6.0926   5.3150   5.1233   1.1261   1.0684   999.0000   999.0000   999.0000  999.0000    5.9271    4.9699    3.3527    0.1322
  6.845098    7.0581   6.5724   5.5069   5.3780   1.0980   1.0454   999.0000   999.0000   999.0000  999.0000    6.0010    4.9222    3.3963    0.1224
  6.860338    7.1111   6.6834   5.5490   5.4444   1.0945   1.0418   999.0000   999.0000   999.0000  999.0000    6.0263    4.9415    3.4300    0.1209
  6.875061    7.1305   6.7572   5.5690   5.4874   1.0897   1.0376   999.0000   999.0000   999.0000  999.0000    6.0285    4.9400    3.4469    0.1188
  6.903090    7.4477   7.1830   5.7658   5.7347   1.0913   1.0362   999.0000   999.0000   999.0000  999.0000    6.1965    5.0642    3.5478    0.1202
  6.929419    7.8099   7.5364   5.9862   5.9555   1.1095   1.0473   999.0000   999.0000   999.0000  999.0000    6.4359    5.2701    3.6757    0.1286
  6.954243    7.7108   7.4182   5.9336   5.8943   1.1082   1.0470   999.0000   999.0000   999.0000  999.0000    6.3862    5.2369    3.6545    0.1279
  6.977724    7.4203   7.1078   5.7541   5.7028   1.0971   1.0408   999.0000   999.0000   999.0000  999.0000    6.2033    5.0853    3.5545    0.1225
  7.000000    7.5213   7.2242   5.8074   5.7629   1.0989   1.0414   999.0000   999.0000   999.0000  999.0000    6.2556    5.1217    3.5746    0.1234
  7.021189    7.2576   6.9388   5.6417   5.5902   1.0925   1.0384   999.0000   999.0000   999.0000  999.0000    6.0916    5.0000    3.4881    0.1202
  7.041393    6.9692   6.6378   5.4699   5.4100   1.0840   1.0334   999.0000   999.0000   999.0000  999.0000    5.9204    4.8769    3.4189    0.1155
  7.060698    6.8757   6.5337   5.4092   5.3368   1.0769   1.0289   999.0000   999.0000   999.0000  999.0000    5.8564    4.8076    3.3739    0.1121
  7.079181    6.8268   6.4926   5.3678   5.2855   1.0633   1.0200   999.0000   999.0000   999.0000  999.0000    5.7974    4.7073    3.3007    0.1065
  7.096910    6.7629   6.4135   5.3136   5.2223   1.0596   1.0180   999.0000   999.0000   999.0000  999.0000    5.7442    4.6511    3.2509    0.1048
  7.113944    7.1663   6.8060   5.5924   5.5031   1.0829   1.0323   999.0000   999.0000   999.0000  999.0000    6.0428    4.9304    3.4447    0.1155
  7.130334    7.4594   7.0713   5.7918   5.6974   1.1029   1.0452   999.0000   999.0000   999.0000  999.0000    6.2650    5.1406    3.5795    0.1247
  7.146128    7.4215   7.0099   5.7692   5.6646   1.1041   1.0465   999.0000   999.0000   999.0000  999.0000    6.2490    5.1312    3.5673    0.1252
  7.161368    6.9838   6.5625   5.4757   5.3600   1.0815   1.0331   999.0000   999.0000   999.0000  999.0000    5.9391    4.8493    3.3713    0.1148
  7.176091    6.5973   6.1616   5.2279   5.0855   1.0608   1.0196   999.0000   999.0000   999.0000  999.0000    5.6885    4.6240    3.2402    0.1041
  7.204120    6.6345   6.1545   5.2722   5.0999   1.0668   1.0232   999.0000   999.0000   999.0000  999.0000    5.7555    4.6981    3.3073    0.1058
  7.230449    6.6717   6.1462   5.3167   5.1164   1.0741   1.0278   999.0000   999.0000   999.0000  999.0000    5.8237    4.7773    3.3752    0.1082
  7.255272    6.7102   6.1615   5.3564   5.1404   1.0792   1.0309   999.0000   999.0000   999.0000  999.0000    5.8780    4.8391    3.4286    0.1098
  7.278754    6.9929   6.3701   5.5240   5.3021   1.1116   1.0540   999.0000   999.0000   999.0000  999.0000    6.0881    5.0642    3.5320    0.1250
  7.301030    6.9278   6.0828   5.4573   5.1336   1.1305   1.0702   999.0000   999.0000   999.0000  999.0000    6.0933    5.0846    3.4751    0.1325
  7.322219    6.1452   4.9353   4.9307   4.4069   1.1174   1.0679   999.0000   999.0000   999.0000  999.0000    5.6541    4.7004    3.1438    0.1232
  7.342422    5.8007   4.4442   4.7133   4.1171   1.1184   1.0714   999.0000   999.0000   999.0000  999.0000    5.4831    4.5806    3.0376    0.1218
  7.361728    5.8208   4.4596   4.7394   4.1384   1.1225   1.0737   999.0000   999.0000   999.0000  999.0000    5.5222    4.6323    3.0828    0.1229
