#                                                     Mon Jul 29 20:44:13 2019
#          I------------------------------------------------------------------------------------------------------------------------I
#          I                                                                                                                        I
#          I      BC_GALAXEV  ---  MODEL PARAMETERS:   Generic file name for this model = cb2018_z030_chab_hr_pmiles_ssp            I
#          I                                                                                                                        I
#          I      TRACKS: Padova 2013 + Marigo 2013, X=0.668, Y=0.302, Z=0.030                                                      I
#          I                                                                                                                        I
#          I      S.F.R.: SSP = Zero Length Burst at t = 0                                                                          I
#          I                                                                                                                        I
#          I                                                                                                                        I
#          I      I.M.F.: Lognormal + power law                                                                                     I
#          I                                                                      mass in      number                               I
#          I                                                  from m     to m     segment    of stars      c                        I
#          I                                        lognormal   0.10     1.00      0.4057      1.3076                               I
#          I                                          x=1.3     1.00   100.00      0.5943      0.1827                               I
#          I                                                                                                                        I
#          I                                                           totals      1.0000      1.4903  0.6710 Mo/star               I
#          I                                                                                                                        I
#          I                                                                                                                        I
#          I                                                                                                                        I
#          I                                                                                                                        I
#          I      LISTED: Rest frame properties                                                                                     I
#          I                                                                                                                        I
#          I                                                                                                                        I
#          I                              (C) 1995-2017 G. Bruzual A. & S. Charlot - All Rights Reserved                            I
#          I------------------------------------------------------------------------------------------------------------------------I
#
#    (1)        (2)      (3)      (4)      (5)      (6)      (7)       (8)        (9)        (10)      (11)      (12)      (13)      (14)      (15)
#
# Index_No.    WO-1:    WO-2:    WO-3:    WO-4:    GC-1:    4000A    DTT-Ca1    DTT-Ca2    DTT-Ca3   DTT-MgI     DM-04     DM-04     DM-04       BH:
# log-age    HdeltaA  HgammaA  HdeltaF  HgammaF  D(4000)    B4_VN   CaII8498   CaII8542   CaII8662   MgI8807   H8_3889   H9_3835  H10_3798     BH-HK
#   (yr)        (A)      (A)      (A)      (A)       .        .         (A)        (A)        (A)       (A)       (A)       (A)       (A)        (A)
  4.000000    7.2153   7.6936   5.9801   6.0931   1.1104   1.0343   999.0000   999.0000   999.0000  999.0000    6.6989    5.6856    4.1438    0.1194
  4.301030    7.2153   7.6936   5.9801   6.0931   1.1104   1.0343   999.0000   999.0000   999.0000  999.0000    6.6989    5.6856    4.1438    0.1194
  4.477121    7.2153   7.6936   5.9801   6.0931   1.1104   1.0343   999.0000   999.0000   999.0000  999.0000    6.6989    5.6856    4.1438    0.1194
  4.602060    7.2153   7.6936   5.9801   6.0931   1.1104   1.0343   999.0000   999.0000   999.0000  999.0000    6.6989    5.6856    4.1438    0.1194
  4.698970    7.2153   7.6936   5.9801   6.0931   1.1104   1.0343   999.0000   999.0000   999.0000  999.0000    6.6989    5.6856    4.1438    0.1194
  4.778151    7.2153   7.6936   5.9801   6.0931   1.1104   1.0343   999.0000   999.0000   999.0000  999.0000    6.6989    5.6856    4.1438    0.1194
  4.845098    7.2154   7.6936   5.9802   6.0931   1.1104   1.0343   999.0000   999.0000   999.0000  999.0000    6.6989    5.6857    4.1438    0.1194
  4.903090    7.2152   7.6935   5.9800   6.0929   1.1104   1.0343   999.0000   999.0000   999.0000  999.0000    6.6987    5.6855    4.1437    0.1194
  4.954243    7.2148   7.6932   5.9797   6.0926   1.1103   1.0343   999.0000   999.0000   999.0000  999.0000    6.6984    5.6851    4.1434    0.1194
  5.000000    7.2146   7.6930   5.9796   6.0925   1.1103   1.0342   999.0000   999.0000   999.0000  999.0000    6.6983    5.6849    4.1433    0.1194
  5.060698    7.2140   7.6927   5.9792   6.0921   1.1103   1.0342   999.0000   999.0000   999.0000  999.0000    6.6978    5.6844    4.1429    0.1194
  5.113944    7.2134   7.6922   5.9787   6.0916   1.1102   1.0342   999.0000   999.0000   999.0000  999.0000    6.6973    5.6838    4.1424    0.1194
  5.161368    7.2133   7.6921   5.9786   6.0915   1.1102   1.0342   999.0000   999.0000   999.0000  999.0000    6.6972    5.6838    4.1424    0.1194
  5.204120    7.2132   7.6921   5.9786   6.0915   1.1102   1.0342   999.0000   999.0000   999.0000  999.0000    6.6972    5.6837    4.1423    0.1194
  5.243038    7.2131   7.6920   5.9785   6.0914   1.1102   1.0342   999.0000   999.0000   999.0000  999.0000    6.6971    5.6836    4.1422    0.1194
  5.255272    7.2128   7.6918   5.9783   6.0912   1.1102   1.0342   999.0000   999.0000   999.0000  999.0000    6.6969    5.6833    4.1420    0.1194
  5.278754    7.2126   7.6916   5.9781   6.0910   1.1101   1.0341   999.0000   999.0000   999.0000  999.0000    6.6967    5.6831    4.1418    0.1194
  5.301030    7.2125   7.6916   5.9781   6.0909   1.1101   1.0341   999.0000   999.0000   999.0000  999.0000    6.6966    5.6830    4.1418    0.1194
  5.397940    7.2119   7.6912   5.9776   6.0905   1.1101   1.0341   999.0000   999.0000   999.0000  999.0000    6.6962    5.6825    4.1414    0.1193
  5.477121    7.2110   7.6905   5.9770   6.0898   1.1100   1.0341   999.0000   999.0000   999.0000  999.0000    6.6954    5.6817    4.1407    0.1193
  5.544068    7.2104   7.6901   5.9765   6.0893   1.1100   1.0340   999.0000   999.0000   999.0000  999.0000    6.6949    5.6811    4.1403    0.1193
  5.602060    7.2097   7.6896   5.9760   6.0888   1.1099   1.0340   999.0000   999.0000   999.0000  999.0000    6.6944    5.6805    4.1398    0.1193
  5.653213    7.2096   7.6895   5.9759   6.0887   1.1099   1.0340   999.0000   999.0000   999.0000  999.0000    6.6943    5.6803    4.1397    0.1193
  5.698970    7.2094   7.6894   5.9758   6.0886   1.1099   1.0340   999.0000   999.0000   999.0000  999.0000    6.6942    5.6802    4.1396    0.1193
  5.740363    7.2093   7.6893   5.9757   6.0885   1.1099   1.0340   999.0000   999.0000   999.0000  999.0000    6.6941    5.6801    4.1395    0.1193
  5.778151    7.2089   7.6890   5.9754   6.0882   1.1098   1.0340   999.0000   999.0000   999.0000  999.0000    6.6938    5.6797    4.1392    0.1193
  5.812913    7.2085   7.6887   5.9751   6.0879   1.1098   1.0339   999.0000   999.0000   999.0000  999.0000    6.6934    5.6793    4.1389    0.1193
  5.845098    7.2075   7.6880   5.9744   6.0871   1.1097   1.0339   999.0000   999.0000   999.0000  999.0000    6.6927    5.6784    4.1382    0.1193
  5.875061    7.2070   7.6876   5.9740   6.0867   1.1097   1.0339   999.0000   999.0000   999.0000  999.0000    6.6922    5.6780    4.1379    0.1192
  5.903090    7.2064   7.6872   5.9736   6.0863   1.1096   1.0338   999.0000   999.0000   999.0000  999.0000    6.6918    5.6774    4.1375    0.1192
  5.929419    7.2057   7.6867   5.9731   6.0858   1.1096   1.0338   999.0000   999.0000   999.0000  999.0000    6.6913    5.6768    4.1370    0.1192
  5.954243    7.2052   7.6863   5.9726   6.0853   1.1095   1.0338   999.0000   999.0000   999.0000  999.0000    6.6908    5.6763    4.1366    0.1192
  5.977724    7.2048   7.6861   5.9724   6.0851   1.1095   1.0337   999.0000   999.0000   999.0000  999.0000    6.6905    5.6759    4.1363    0.1192
  6.000000    7.2046   7.6859   5.9722   6.0849   1.1095   1.0337   999.0000   999.0000   999.0000  999.0000    6.6904    5.6758    4.1362    0.1192
  6.041393    7.2036   7.6852   5.9715   6.0841   1.1094   1.0337   999.0000   999.0000   999.0000  999.0000    6.6895    5.6748    4.1355    0.1192
  6.079181    7.2017   7.6839   5.9701   6.0827   1.1092   1.0336   999.0000   999.0000   999.0000  999.0000    6.6881    5.6731    4.1341    0.1191
  6.113944    7.2003   7.6828   5.9690   6.0816   1.1091   1.0335   999.0000   999.0000   999.0000  999.0000    6.6869    5.6718    4.1331    0.1191
  6.146128    7.1989   7.6818   5.9680   6.0806   1.1090   1.0334   999.0000   999.0000   999.0000  999.0000    6.6858    5.6705    4.1321    0.1191
  6.176091    7.1977   7.6810   5.9671   6.0797   1.1089   1.0334   999.0000   999.0000   999.0000  999.0000    6.6849    5.6694    4.1313    0.1190
  6.204120    7.1963   7.6800   5.9661   6.0786   1.1088   1.0333   999.0000   999.0000   999.0000  999.0000    6.6838    5.6682    4.1303    0.1190
  6.230449    7.1944   7.6786   5.9647   6.0772   1.1086   1.0332   999.0000   999.0000   999.0000  999.0000    6.6823    5.6664    4.1290    0.1190
  6.255272    7.1932   7.6778   5.9638   6.0763   1.1085   1.0331   999.0000   999.0000   999.0000  999.0000    6.6813    5.6653    4.1281    0.1189
  6.278754    7.1914   7.6765   5.9625   6.0749   1.1084   1.0330   999.0000   999.0000   999.0000  999.0000    6.6799    5.6636    4.1268    0.1189
  6.301030    7.1893   7.6750   5.9610   6.0733   1.1082   1.0329   999.0000   999.0000   999.0000  999.0000    6.6782    5.6617    4.1253    0.1189
  6.322219    7.1873   7.6736   5.9595   6.0718   1.1080   1.0328   999.0000   999.0000   999.0000  999.0000    6.6767    5.6599    4.1240    0.1188
  6.342422    7.1852   7.6721   5.9580   6.0702   1.1078   1.0327   999.0000   999.0000   999.0000  999.0000    6.6750    5.6580    4.1225    0.1188
  6.361728    7.1832   7.6706   5.9565   6.0687   1.1077   1.0326   999.0000   999.0000   999.0000  999.0000    6.6734    5.6561    4.1210    0.1187
  6.380211    7.1812   7.6692   5.9550   6.0672   1.1075   1.0325   999.0000   999.0000   999.0000  999.0000    6.6718    5.6543    4.1196    0.1187
  6.397940    7.1800   7.6684   5.9541   6.0663   1.1074   1.0324   999.0000   999.0000   999.0000  999.0000    6.6709    5.6532    4.1188    0.1187
  6.414973    7.0397   7.4952   5.8193   5.9231   1.1041   1.0308   999.0000   999.0000   999.0000  999.0000    6.5192    5.5489    4.0497    0.1176
  6.431364    7.0901   7.4733   5.8420   5.9035   1.1047   1.0315   999.0000   999.0000   999.0000  999.0000    6.5185    5.5671    4.0618    0.1173
  6.447158    6.6724   6.8453   5.3949   5.3841   1.0950   1.0268   999.0000   999.0000   999.0000  999.0000    5.9992    5.2631    3.8632    0.1133
  6.462398    6.5323   6.3401   5.1588   4.9818   1.0930   1.0293   999.0000   999.0000   999.0000  999.0000    5.6549    5.1494    3.8082    0.1115
  6.477121    6.5690   6.4374   5.2270   5.0794   1.0935   1.0296   999.0000   999.0000   999.0000  999.0000    5.7550    5.1646    3.8220    0.1100
  6.491362    6.5551   6.4168   5.2340   5.0649   1.0913   1.0287   999.0000   999.0000   999.0000  999.0000    5.7230    5.0941    3.7853    0.1085
  6.505150    6.5791   6.4625   5.2626   5.1067   1.0908   1.0285   999.0000   999.0000   999.0000  999.0000    5.7663    5.0912    3.8011    0.1080
  6.518514    6.6477   6.6070   5.3530   5.2281   1.0925   1.0296   999.0000   999.0000   999.0000  999.0000    5.8849    5.1377    3.8314    0.1089
  6.531479    6.7514   6.7264   5.4384   5.3165   1.0942   1.0297   999.0000   999.0000   999.0000  999.0000    5.9711    5.2031    3.8777    0.1095
  6.544068    6.7805   6.7877   5.4865   5.3679   1.0940   1.0292   999.0000   999.0000   999.0000  999.0000    6.0092    5.2062    3.8728    0.1093
  6.556303    6.7738   6.7886   5.4874   5.3815   1.0951   1.0313   999.0000   999.0000   999.0000  999.0000    6.0410    5.2007    3.8481    0.1104
  6.568202    6.8703   6.8285   5.5425   5.3953   1.0952   1.0301   999.0000   999.0000   999.0000  999.0000    6.0416    5.2406    3.8904    0.1102
  6.579783    6.9230   6.9915   5.6169   5.5399   1.0996   1.0334   999.0000   999.0000   999.0000  999.0000    6.2355    5.3398    3.9407    0.1125
  6.591064    6.9765   6.9729   5.6347   5.5163   1.0993   1.0327   999.0000   999.0000   999.0000  999.0000    6.1839    5.3476    3.9679    0.1127
  6.602060    6.9407   7.0920   5.6707   5.6602   1.1068   1.0373   999.0000   999.0000   999.0000  999.0000    6.3812    5.4597    4.0065    0.1159
  6.612784    6.9255   7.0093   5.6422   5.6476   1.1137   1.0423   999.0000   999.0000   999.0000  999.0000    6.3940    5.4938    4.0311    0.1178
  6.623249    6.8640   6.7155   5.5253   5.4343   1.1153   1.0454   999.0000   999.0000   999.0000  999.0000    6.2026    5.4487    4.0004    0.1184
  6.633469    6.8693   6.8743   5.5930   5.5707   1.1181   1.0463   999.0000   999.0000   999.0000  999.0000    6.3608    5.4933    4.0284    0.1195
  6.643453    6.8198   6.7439   5.5366   5.4859   1.1217   1.0501   999.0000   999.0000   999.0000  999.0000    6.3090    5.4516    4.0039    0.1196
  6.653213    6.7697   6.6109   5.4722   5.3959   1.1246   1.0532   999.0000   999.0000   999.0000  999.0000    6.2333    5.4083    3.9713    0.1197
  6.662758    6.6905   6.5025   5.4168   5.3390   1.1279   1.0560   999.0000   999.0000   999.0000  999.0000    6.1619    5.3671    3.9392    0.1203
  6.672098    6.6266   6.4375   5.3849   5.3141   1.1314   1.0587   999.0000   999.0000   999.0000  999.0000    6.1147    5.3355    3.9170    0.1213
  6.681241    6.6442   6.4960   5.4243   5.3504   1.1307   1.0576   999.0000   999.0000   999.0000  999.0000    6.1734    5.3637    3.9371    0.1212
  6.690196    6.6788   6.6001   5.4898   5.4195   1.1295   1.0556   999.0000   999.0000   999.0000  999.0000    6.2601    5.4066    3.9663    0.1212
  6.698970    6.6226   6.5446   5.5050   5.4195   1.1346   1.0583   999.0000   999.0000   999.0000  999.0000    6.3397    5.4517    3.9919    0.1227
  6.720160    6.6271   6.3905   5.5148   5.3337   1.1392   1.0611   999.0000   999.0000   999.0000  999.0000    6.4557    5.5288    4.0408    0.1230
  6.740363    6.7874   6.5392   5.5869   5.4028   1.1313   1.0539   999.0000   999.0000   999.0000  999.0000    6.4746    5.5402    4.0547    0.1201
  6.759668    6.8483   6.6314   5.6108   5.4456   1.1275   1.0510   999.0000   999.0000   999.0000  999.0000    6.4621    5.5391    4.0528    0.1191
  6.778151    6.8932   6.8760   5.6698   5.6037   1.1242   1.0480   999.0000   999.0000   999.0000  999.0000    6.4925    5.5603    4.0634    0.1195
  6.795880    6.9464   7.0817   5.7269   5.7265   1.1215   1.0455   999.0000   999.0000   999.0000  999.0000    6.5245    5.5816    4.0783    0.1197
  6.812913    7.0242   7.2814   5.8001   5.8341   1.1193   1.0430   999.0000   999.0000   999.0000  999.0000    6.5741    5.6147    4.1041    0.1200
  6.829304    7.1073   7.4390   5.8784   5.9128   1.1187   1.0414   999.0000   999.0000   999.0000  999.0000    6.6382    5.6571    4.1381    0.1206
  6.845098    7.1125   7.4745   5.8993   5.9434   1.1201   1.0419   999.0000   999.0000   999.0000  999.0000    6.6613    5.6748    4.1520    0.1213
  6.860338    7.1235   7.5038   5.9163   5.9674   1.1206   1.0419   999.0000   999.0000   999.0000  999.0000    6.6762    5.6876    4.1611    0.1217
  6.875061    7.1222   7.4958   5.9158   5.9633   1.1212   1.0423   999.0000   999.0000   999.0000  999.0000    6.6768    5.6901    4.1635    0.1218
  6.903090    7.1154   7.4660   5.9122   5.9469   1.1227   1.0433   999.0000   999.0000   999.0000  999.0000    6.6763    5.6947    4.1687    0.1220
  6.929419    7.1166   7.4493   5.9144   5.9396   1.1234   1.0437   999.0000   999.0000   999.0000  999.0000    6.6769    5.7002    4.1735    0.1219
  6.954243    7.1224   7.4445   5.9197   5.9403   1.1243   1.0442   999.0000   999.0000   999.0000  999.0000    6.6826    5.7086    4.1794    0.1221
  6.977724    7.1283   7.4365   5.9253   5.9394   1.1252   1.0447   999.0000   999.0000   999.0000  999.0000    6.6893    5.7177    4.1852    0.1222
  7.000000    7.1439   7.4492   5.9358   5.9520   1.1257   1.0449   999.0000   999.0000   999.0000  999.0000    6.7003    5.7261    4.1901    0.1224
  7.021189    7.1555   7.4512   5.9434   5.9606   1.1262   1.0451   999.0000   999.0000   999.0000  999.0000    6.7107    5.7329    4.1944    0.1226
  7.041393    7.1700   7.4577   5.9534   5.9760   1.1260   1.0448   999.0000   999.0000   999.0000  999.0000    6.7219    5.7385    4.1978    0.1226
  7.060698    7.1758   7.4585   5.9579   5.9816   1.1262   1.0449   999.0000   999.0000   999.0000  999.0000    6.7271    5.7428    4.2018    0.1227
  7.079181    7.1740   7.4392   5.9577   5.9766   1.1269   1.0454   999.0000   999.0000   999.0000  999.0000    6.7293    5.7471    4.2060    0.1228
  7.096910    7.1740   7.4190   5.9590   5.9729   1.1277   1.0458   999.0000   999.0000   999.0000  999.0000    6.7317    5.7547    4.2102    0.1228
  7.113944    7.1798   7.4054   5.9640   5.9748   1.1281   1.0461   999.0000   999.0000   999.0000  999.0000    6.7371    5.7639    4.2144    0.1227
  7.130334    7.1912   7.4089   5.9726   5.9847   1.1284   1.0461   999.0000   999.0000   999.0000  999.0000    6.7461    5.7730    4.2192    0.1227
  7.146128    7.1958   7.4051   5.9766   5.9873   1.1289   1.0464   999.0000   999.0000   999.0000  999.0000    6.7517    5.7781    4.2231    0.1228
  7.161368    7.1917   7.3837   5.9745   5.9798   1.1298   1.0469   999.0000   999.0000   999.0000  999.0000    6.7539    5.7799    4.2263    0.1230
  7.176091    7.1904   7.3647   5.9732   5.9730   1.1308   1.0476   999.0000   999.0000   999.0000  999.0000    6.7582    5.7822    4.2293    0.1232
  7.204120    7.1854   7.3224   5.9692   5.9573   1.1329   1.0489   999.0000   999.0000   999.0000  999.0000    6.7641    5.7865    4.2351    0.1237
  7.230449    7.1954   7.3166   5.9764   5.9601   1.1343   1.0497   999.0000   999.0000   999.0000  999.0000    6.7728    5.8002    4.2427    0.1238
  7.255272    7.2092   7.3310   5.9870   5.9709   1.1353   1.0503   999.0000   999.0000   999.0000  999.0000    6.7814    5.8148    4.2516    0.1239
  7.278754    7.2144   7.3266   5.9911   5.9714   1.1363   1.0510   999.0000   999.0000   999.0000  999.0000    6.7859    5.8216    4.2576    0.1242
  7.301030    7.2211   7.3330   5.9964   5.9767   1.1368   1.0514   999.0000   999.0000   999.0000  999.0000    6.7925    5.8268    4.2634    0.1244
  7.322219    7.2271   7.3285   6.0021   5.9762   1.1380   1.0521   999.0000   999.0000   999.0000  999.0000    6.8016    5.8351    4.2706    0.1246
  7.342422    7.2395   7.3252   6.0121   5.9775   1.1395   1.0529   999.0000   999.0000   999.0000  999.0000    6.8158    5.8495    4.2791    0.1249
  7.361728    7.2406   7.3158   6.0136   5.9742   1.1411   1.0541   999.0000   999.0000   999.0000  999.0000    6.8225    5.8612    4.2845    0.1253
