#                                                     Mon Jul 29 20:36:37 2019
#          I------------------------------------------------------------------------------------------------------------------------I
#          I                                                                                                                        I
#          I      BC_GALAXEV  ---  MODEL PARAMETERS:   Generic file name for this model = cb2018_z0002_chab_hr_smiles_ssp           I
#          I                                                                                                                        I
#          I      TRACKS: Padova 2013 + Marigo 2013, X=0.7508, Y=0.249, Z=0.0002                                                    I
#          I                                                                                                                        I
#          I      S.F.R.: SSP = Zero Length Burst at t = 0                                                                          I
#          I                                                                                                                        I
#          I                                                                                                                        I
#          I      I.M.F.: Lognormal + power law                                                                                     I
#          I                                                                      mass in      number                               I
#          I                                                  from m     to m     segment    of stars      c                        I
#          I                                        lognormal   0.10     1.00      0.4057      1.3076                               I
#          I                                          x=1.3     1.00   100.00      0.5943      0.1827                               I
#          I                                                                                                                        I
#          I                                                           totals      1.0000      1.4903  0.6710 Mo/star               I
#          I                                                                                                                        I
#          I                                                                                                                        I
#          I                                                                                                                        I
#          I                                                                                                                        I
#          I      LISTED: Rest frame properties                                                                                     I
#          I                                                                                                                        I
#          I                                                                                                                        I
#          I                              (C) 1995-2017 G. Bruzual A. & S. Charlot - All Rights Reserved                            I
#          I------------------------------------------------------------------------------------------------------------------------I
#
#    (1)        (2)      (3)      (4)      (5)      (6)      (7)       (8)        (9)        (10)      (11)      (12)      (13)      (14)      (15)
#
# Index_No.    WO-1:    WO-2:    WO-3:    WO-4:    GC-1:    4000A    DTT-Ca1    DTT-Ca2    DTT-Ca3   DTT-MgI     DM-04     DM-04     DM-04       BH:
# log-age    HdeltaA  HgammaA  HdeltaF  HgammaF  D(4000)    B4_VN   CaII8498   CaII8542   CaII8662   MgI8807   H8_3889   H9_3835  H10_3798     BH-HK
#   (yr)        (A)      (A)      (A)      (A)       .        .         (A)        (A)        (A)       (A)       (A)       (A)       (A)        (A)
  4.000000    6.4238   7.1963   5.1713   5.8651   1.0448   1.0143   999.0000   999.0000   999.0000  999.0000    5.8273    4.5786    3.3706    0.0931
  4.301030    6.4238   7.1963   5.1713   5.8651   1.0448   1.0143   999.0000   999.0000   999.0000  999.0000    5.8273    4.5786    3.3706    0.0931
  4.477121    6.4238   7.1963   5.1713   5.8651   1.0448   1.0143   999.0000   999.0000   999.0000  999.0000    5.8273    4.5786    3.3706    0.0931
  4.602060    6.4238   7.1963   5.1713   5.8651   1.0448   1.0143   999.0000   999.0000   999.0000  999.0000    5.8273    4.5786    3.3706    0.0931
  4.698970    6.4238   7.1963   5.1713   5.8651   1.0448   1.0143   999.0000   999.0000   999.0000  999.0000    5.8273    4.5785    3.3706    0.0931
  4.778151    6.4238   7.1963   5.1713   5.8651   1.0448   1.0143   999.0000   999.0000   999.0000  999.0000    5.8273    4.5786    3.3706    0.0931
  4.845098    6.4222   7.1952   5.1701   5.8642   1.0448   1.0143   999.0000   999.0000   999.0000  999.0000    5.8263    4.5774    3.3697    0.0931
  4.903090    6.4102   7.1851   5.1602   5.8566   1.0444   1.0142   999.0000   999.0000   999.0000  999.0000    5.8173    4.5679    3.3622    0.0929
  4.954243    6.4042   7.1800   5.1554   5.8526   1.0443   1.0141   999.0000   999.0000   999.0000  999.0000    5.8128    4.5631    3.3584    0.0928
  5.000000    6.3964   7.1733   5.1490   5.8476   1.0440   1.0141   999.0000   999.0000   999.0000  999.0000    5.8070    4.5569    3.3535    0.0927
  5.060698    6.3915   7.1692   5.1450   5.8444   1.0439   1.0140   999.0000   999.0000   999.0000  999.0000    5.8033    4.5530    3.3504    0.0926
  5.113944    6.3821   7.1613   5.1373   5.8384   1.0436   1.0139   999.0000   999.0000   999.0000  999.0000    5.7963    4.5454    3.3445    0.0925
  5.161368    6.3808   7.1602   5.1363   5.8376   1.0436   1.0139   999.0000   999.0000   999.0000  999.0000    5.7953    4.5444    3.3437    0.0925
  5.204120    6.3769   7.1570   5.1332   5.8351   1.0434   1.0138   999.0000   999.0000   999.0000  999.0000    5.7925    4.5414    3.3414    0.0924
  5.243038    6.3730   7.1537   5.1299   5.8326   1.0433   1.0138   999.0000   999.0000   999.0000  999.0000    5.7896    4.5383    3.3389    0.0923
  5.255272    6.3698   7.1511   5.1274   5.8306   1.0432   1.0138   999.0000   999.0000   999.0000  999.0000    5.7873    4.5358    3.3369    0.0923
  5.278754    6.3698   7.1511   5.1274   5.8307   1.0432   1.0138   999.0000   999.0000   999.0000  999.0000    5.7873    4.5358    3.3369    0.0923
  5.301030    6.3674   7.1491   5.1254   5.8291   1.0432   1.0137   999.0000   999.0000   999.0000  999.0000    5.7855    4.5339    3.3354    0.0923
  5.397940    6.3514   7.1357   5.1125   5.8189   1.0427   1.0136   999.0000   999.0000   999.0000  999.0000    5.7736    4.5212    3.3255    0.0920
  5.477121    6.3393   7.1251   5.1026   5.8109   1.0423   1.0134   999.0000   999.0000   999.0000  999.0000    5.7645    4.5117    3.3180    0.0919
  5.544068    6.3284   7.1158   5.0938   5.8038   1.0420   1.0133   999.0000   999.0000   999.0000  999.0000    5.7563    4.5031    3.3113    0.0917
  5.602060    6.3178   7.1068   5.0851   5.7969   1.0417   1.0132   999.0000   999.0000   999.0000  999.0000    5.7484    4.4947    3.3047    0.0916
  5.653213    6.2981   7.0901   5.0692   5.7842   1.0411   1.0130   999.0000   999.0000   999.0000  999.0000    5.7338    4.4792    3.2925    0.0913
  5.698970    6.2855   7.0792   5.0590   5.7759   1.0407   1.0128   999.0000   999.0000   999.0000  999.0000    5.7243    4.4692    3.2847    0.0911
  5.740363    6.2689   7.0650   5.0455   5.7650   1.0403   1.0127   999.0000   999.0000   999.0000  999.0000    5.7118    4.4562    3.2745    0.0909
  5.778151    6.2537   7.0519   5.0331   5.7551   1.0398   1.0125   999.0000   999.0000   999.0000  999.0000    5.7003    4.4441    3.2650    0.0906
  5.812913    6.2417   7.0416   5.0234   5.7472   1.0395   1.0124   999.0000   999.0000   999.0000  999.0000    5.6913    4.4348    3.2577    0.0905
  5.845098    6.2241   7.0265   5.0091   5.7357   1.0390   1.0122   999.0000   999.0000   999.0000  999.0000    5.6782    4.4209    3.2469    0.0902
  5.875061    6.2027   7.0082   4.9917   5.7218   1.0383   1.0120   999.0000   999.0000   999.0000  999.0000    5.6622    4.4040    3.2336    0.0899
  5.903090    6.1892   6.9965   4.9808   5.7128   1.0380   1.0118   999.0000   999.0000   999.0000  999.0000    5.6521    4.3935    3.2254    0.0897
  5.929419    6.1674   6.9777   4.9630   5.6984   1.0373   1.0116   999.0000   999.0000   999.0000  999.0000    5.6358    4.3763    3.2120    0.0894
  5.954243    6.1464   6.9598   4.9460   5.6847   1.0367   1.0114   999.0000   999.0000   999.0000  999.0000    5.6201    4.3597    3.1990    0.0891
  5.977724    6.1311   6.9465   4.9336   5.6746   1.0363   1.0112   999.0000   999.0000   999.0000  999.0000    5.6086    4.3478    3.1896    0.0889
  6.000000    6.1149   6.9326   4.9204   5.6639   1.0358   1.0110   999.0000   999.0000   999.0000  999.0000    5.5965    4.3351    3.1797    0.0886
  6.041393    6.0759   6.8984   4.8887   5.6377   1.0347   1.0106   999.0000   999.0000   999.0000  999.0000    5.5670    4.3045    3.1559    0.0881
  6.079181    6.0427   6.8686   4.8618   5.6148   1.0338   1.0103   999.0000   999.0000   999.0000  999.0000    5.5416    4.2786    3.1356    0.0876
  6.113944    5.9965   6.8283   4.8243   5.5837   1.0324   1.0098   999.0000   999.0000   999.0000  999.0000    5.5066    4.2422    3.1073    0.0870
  6.146128    5.9548   6.7915   4.7904   5.5554   1.0312   1.0093   999.0000   999.0000   999.0000  999.0000    5.4749    4.2094    3.0817    0.0864
  6.176091    5.8695   6.7313   4.7214   5.5133   1.0296   1.0090   999.0000   999.0000   999.0000  999.0000    5.4366    4.1443    3.0314    0.0852
  6.204120    5.7608   6.6595   4.6332   5.4641   1.0272   1.0084   999.0000   999.0000   999.0000  999.0000    5.3879    4.0607    2.9667    0.0837
  6.230449    5.6607   6.5863   4.5519   5.4112   1.0245   1.0076   999.0000   999.0000   999.0000  999.0000    5.3288    3.9829    2.9065    0.0823
  6.255272    5.5822   6.5162   4.4881   5.3568   1.0221   1.0066   999.0000   999.0000   999.0000  999.0000    5.2652    3.9218    2.8593    0.0812
  6.278754    5.5305   6.4900   4.4464   5.3413   1.0209   1.0064   999.0000   999.0000   999.0000  999.0000    5.2490    3.8825    2.8291    0.0805
  6.301030    5.2920   6.3012   4.2525   5.2004   1.0143   1.0040   999.0000   999.0000   999.0000  999.0000    5.0879    3.6971    2.6862    0.0772
  6.322219    5.2717   6.2952   4.2363   5.1987   1.0137   1.0039   999.0000   999.0000   999.0000  999.0000    5.0835    3.6822    2.6750    0.0769
  6.342422    5.1322   6.1821   4.1231   5.1136   1.0098   1.0024   999.0000   999.0000   999.0000  999.0000    4.9861    3.5748    2.5927    0.0749
  6.361728    5.3675   6.3792   4.3146   5.2635   1.0161   1.0047   999.0000   999.0000   999.0000  999.0000    5.1569    3.7585    2.7342    0.0782
  6.380211    6.3589   7.2084   5.1240   5.8958   1.0444   1.0149   999.0000   999.0000   999.0000  999.0000    5.8836    4.5426    3.3462    0.0923
  6.397940    7.1194   7.8369   5.7482   6.3753   1.0674   1.0229   999.0000   999.0000   999.0000  999.0000    6.4455    5.1581    3.8370    0.1032
  6.414973    8.4311   8.9066   6.8309   7.1921   1.1099   1.0371   999.0000   999.0000   999.0000  999.0000    7.4240    6.2482    4.7296    0.1221
  6.431364    9.3729   9.6674   7.6134   7.7745   1.1428   1.0476   999.0000   999.0000   999.0000  999.0000    8.1390    7.0546    5.4098    0.1357
  6.447158   10.1308  10.2769   8.2464   8.2425   1.1710   1.0563   999.0000   999.0000   999.0000  999.0000    8.7238    7.7186    5.9833    0.1468
  6.462398   10.2206  10.3090   8.3481   8.2919   1.1775   1.0584   999.0000   999.0000   999.0000  999.0000    8.7866    7.8435    6.1182    0.1482
  6.477121    9.5077   9.5534   7.8742   7.8246   1.1650   1.0555   999.0000   999.0000   999.0000  999.0000    8.1948    7.4205    5.8694    0.1385
  6.491362    5.4500   4.0775   4.7260   4.2069   1.3029   1.1829   999.0000   999.0000   999.0000  999.0000    5.6873    5.7130    4.0530    0.1743
  6.505150    4.1056   2.4144   3.7110   3.1474   1.3545   1.2342   999.0000   999.0000   999.0000  999.0000    4.7354    5.0533    3.3876    0.1890
  6.518514    4.3737   2.9290   3.9331   3.4624   1.3197   1.2060   999.0000   999.0000   999.0000  999.0000    4.8046    5.0308    3.5212    0.1762
  6.531479    5.3113   4.2175   4.7137   4.3493   1.2612   1.1588   999.0000   999.0000   999.0000  999.0000    5.3880    5.4229    4.0346    0.1595
  6.544068    5.7728   5.0885   5.1295   4.9337   1.2205   1.1272   999.0000   999.0000   999.0000  999.0000    5.5927    5.5226    4.2835    0.1480
  6.556303    6.3383   5.8997   5.5740   5.4591   1.1896   1.1000   999.0000   999.0000   999.0000  999.0000    5.9075    5.7156    4.5418    0.1364
  6.568202    6.7308   6.4604   5.8744   5.8212   1.1706   1.0835   999.0000   999.0000   999.0000  999.0000    6.1170    5.8451    4.7015    0.1294
  6.579783    6.8953   6.7260   6.0253   6.0156   1.1582   1.0743   999.0000   999.0000   999.0000  999.0000    6.2004    5.8983    4.7923    0.1255
  6.591064    6.9450   6.6759   6.0320   5.9658   1.1688   1.0803   999.0000   999.0000   999.0000  999.0000    6.2875    5.9769    4.8008    0.1292
  6.602060    7.1555   6.9605   6.2010   6.1504   1.1533   1.0668   999.0000   999.0000   999.0000  999.0000    6.4044    6.0609    4.9097    0.1216
  6.612784    7.5836   7.5672   6.5389   6.5568   1.1353   1.0512   999.0000   999.0000   999.0000  999.0000    6.6467    6.2255    5.0946    0.1156
  6.623249    7.7624   7.7773   6.6683   6.6935   1.1346   1.0495   999.0000   999.0000   999.0000  999.0000    6.7760    6.3225    5.1661    0.1164
  6.633469    7.8922   7.9102   6.7578   6.7777   1.1365   1.0497   999.0000   999.0000   999.0000  999.0000    6.8807    6.4028    5.2172    0.1179
  6.643453    7.9695   7.9902   6.8113   6.8284   1.1373   1.0496   999.0000   999.0000   999.0000  999.0000    6.9420    6.4496    5.2478    0.1186
  6.653213    8.0073   8.0273   6.8368   6.8515   1.1380   1.0497   999.0000   999.0000   999.0000  999.0000    6.9729    6.4735    5.2624    0.1191
  6.662758    8.1005   8.1205   6.9003   6.9102   1.1397   1.0501   999.0000   999.0000   999.0000  999.0000    7.0487    6.5318    5.2987    0.1203
  6.672098    8.1778   8.1992   6.9533   6.9601   1.1410   1.0504   999.0000   999.0000   999.0000  999.0000    7.1113    6.5800    5.3288    0.1213
  6.681241    8.2710   8.2938   7.0171   7.0200   1.1427   1.0508   999.0000   999.0000   999.0000  999.0000    7.1866    6.6381    5.3651    0.1225
  6.690196    8.3545   8.3791   7.0744   7.0742   1.1442   1.0511   999.0000   999.0000   999.0000  999.0000    7.2539    6.6899    5.3978    0.1236
  6.698970    8.3827   8.4078   7.0936   7.0922   1.1446   1.0512   999.0000   999.0000   999.0000  999.0000    7.2764    6.7071    5.4087    0.1239
  6.720160    8.5073   8.5320   7.1782   7.1702   1.1472   1.0519   999.0000   999.0000   999.0000  999.0000    7.3784    6.7857    5.4573    0.1256
  6.740363    8.6342   8.6593   7.2649   7.2507   1.1497   1.0525   999.0000   999.0000   999.0000  999.0000    7.4821    6.8658    5.5075    0.1274
  6.759668    8.8236   8.8482   7.3944   7.3702   1.1537   1.0536   999.0000   999.0000   999.0000  999.0000    7.6380    6.9870    5.5831    0.1300
  6.778151    9.0123   9.0384   7.5239   7.4908   1.1574   1.0546   999.0000   999.0000   999.0000  999.0000    7.7924    7.1068    5.6590    0.1326
  6.795880    9.1514   9.1781   7.6192   7.5791   1.1604   1.0554   999.0000   999.0000   999.0000  999.0000    7.9066    7.1955    5.7152    0.1346
  6.812913    9.2935   9.3211   7.7166   7.6694   1.1634   1.0563   999.0000   999.0000   999.0000  999.0000    8.0233    7.2861    5.7729    0.1366
  6.829304    9.4814   9.5112   7.8462   7.7902   1.1673   1.0572   999.0000   999.0000   999.0000  999.0000    8.1770    7.4057    5.8503    0.1391
  6.845098    9.5779   9.6077   7.9127   7.8517   1.1693   1.0577   999.0000   999.0000   999.0000  999.0000    8.2562    7.4675    5.8905    0.1404
  6.860338    9.6732   9.7074   7.9789   7.9152   1.1710   1.0581   999.0000   999.0000   999.0000  999.0000    8.3323    7.5267    5.9296    0.1416
  6.875061    9.7736   9.8118   8.0485   7.9817   1.1729   1.0585   999.0000   999.0000   999.0000  999.0000    8.4129    7.5894    5.9710    0.1429
  6.903090   10.0288  10.0754   8.2254   8.1494   1.1779   1.0596   999.0000   999.0000   999.0000  999.0000    8.6188    7.7501    6.0773    0.1462
  6.929419   10.0935  10.1413   8.2695   8.1906   1.1793   1.0599   999.0000   999.0000   999.0000  999.0000    8.6708    7.7906    6.1038    0.1471
  6.954243   10.1044  10.1504   8.2760   8.1955   1.1798   1.0602   999.0000   999.0000   999.0000  999.0000    8.6802    7.7978    6.1076    0.1473
  6.977724   10.1057  10.1493   8.2756   8.1938   1.1802   1.0604   999.0000   999.0000   999.0000  999.0000    8.6818    7.7989    6.1073    0.1474
  7.000000    9.9840  10.0223   8.1899   8.1117   1.1779   1.0599   999.0000   999.0000   999.0000  999.0000    8.5831    7.7213    6.0551    0.1458
  7.021189    9.7201   9.7467   8.0054   7.9351   1.1732   1.0591   999.0000   999.0000   999.0000  999.0000    8.3702    7.5549    5.9442    0.1424
  7.041393    9.3909   9.4055   7.7763   7.7171   1.1672   1.0578   999.0000   999.0000   999.0000  999.0000    8.1031    7.3465    5.8076    0.1381
  7.060698    9.2982   9.3100   7.7115   7.6557   1.1655   1.0575   999.0000   999.0000   999.0000  999.0000    8.0274    7.2874    5.7688    0.1369
  7.079181    9.3425   9.3525   7.7413   7.6821   1.1667   1.0579   999.0000   999.0000   999.0000  999.0000    8.0648    7.3166    5.7867    0.1376
  7.096910    9.3609   9.3687   7.7529   7.6918   1.1674   1.0582   999.0000   999.0000   999.0000  999.0000    8.0807    7.3290    5.7936    0.1380
  7.113944    9.2214   9.2288   7.6560   7.6020   1.1645   1.0575   999.0000   999.0000   999.0000  999.0000    7.9649    7.2384    5.7352    0.1360
  7.130334    9.1085   9.1139   7.5777   7.5286   1.1623   1.0570   999.0000   999.0000   999.0000  999.0000    7.8720    7.1658    5.6886    0.1345
  7.146128    9.0765   9.0807   7.5553   7.5071   1.1618   1.0569   999.0000   999.0000   999.0000  999.0000    7.8458    7.1453    5.6753    0.1341
  7.161368    9.1666   9.1702   7.6169   7.5636   1.1638   1.0574   999.0000   999.0000   999.0000  999.0000    7.9203    7.2032    5.7119    0.1353
  7.176091    9.1646   9.1673   7.6149   7.5612   1.1639   1.0575   999.0000   999.0000   999.0000  999.0000    7.9185    7.2016    5.7105    0.1353
  7.204120    8.7603   8.7649   7.3363   7.3051   1.1553   1.0551   999.0000   999.0000   999.0000  999.0000    7.5823    6.9395    5.5448    0.1296
  7.230449    8.5969   8.6021   7.2235   7.2012   1.1520   1.0543   999.0000   999.0000   999.0000  999.0000    7.4464    6.8339    5.4782    0.1273
  7.255272    8.7596   8.7648   7.3339   7.3035   1.1554   1.0553   999.0000   999.0000   999.0000  999.0000    7.5795    6.9370    5.5419    0.1296
  7.278754    8.8382   8.8432   7.3867   7.3523   1.1572   1.0559   999.0000   999.0000   999.0000  999.0000    7.6436    6.9866    5.5722    0.1308
  7.301030    8.5898   8.5922   7.2155   7.1926   1.1524   1.0547   999.0000   999.0000   999.0000  999.0000    7.4398    6.8284    5.4721    0.1274
  7.322219    8.3647   8.3631   7.0602   7.0467   1.1484   1.0538   999.0000   999.0000   999.0000  999.0000    7.2560    6.6861    5.3823    0.1244
  7.342422    8.2849   8.2816   7.0047   6.9944   1.1470   1.0535   999.0000   999.0000   999.0000  999.0000    7.1906    6.6353    5.3502    0.1233
  7.361728    8.2360   8.2309   6.9704   6.9618   1.1463   1.0534   999.0000   999.0000   999.0000  999.0000    7.1506    6.6043    5.3303    0.1227
