#                                                     Mon Jul 29 20:39:41 2019
#          I------------------------------------------------------------------------------------------------------------------------I
#          I                                                                                                                        I
#          I      BC_GALAXEV  ---  MODEL PARAMETERS:   Generic file name for this model = cb2018_z008_chab_hr_smiles_ssp            I
#          I                                                                                                                        I
#          I      TRACKS: Padova 2013 + Marigo 2013, X=0.729, Y=0.263, Z=0.008                                                      I
#          I                                                                                                                        I
#          I      S.F.R.: SSP = Zero Length Burst at t = 0                                                                          I
#          I                                                                                                                        I
#          I                                                                                                                        I
#          I      I.M.F.: Lognormal + power law                                                                                     I
#          I                                                                      mass in      number                               I
#          I                                                  from m     to m     segment    of stars      c                        I
#          I                                        lognormal   0.10     1.00      0.4057      1.3076                               I
#          I                                          x=1.3     1.00   100.00      0.5943      0.1827                               I
#          I                                                                                                                        I
#          I                                                           totals      1.0000      1.4903  0.6710 Mo/star               I
#          I                                                                                                                        I
#          I                                                                                                                        I
#          I                                                                                                                        I
#          I                                                                                                                        I
#          I      LISTED: Rest frame properties                                                                                     I
#          I                                                                                                                        I
#          I                                                                                                                        I
#          I                              (C) 1995-2017 G. Bruzual A. & S. Charlot - All Rights Reserved                            I
#          I------------------------------------------------------------------------------------------------------------------------I
#
#    (1)        (2)      (3)      (4)      (5)      (6)      (7)       (8)        (9)        (10)      (11)      (12)      (13)      (14)      (15)
#
# Index_No.    WO-1:    WO-2:    WO-3:    WO-4:    GC-1:    4000A    DTT-Ca1    DTT-Ca2    DTT-Ca3   DTT-MgI     DM-04     DM-04     DM-04       BH:
# log-age    HdeltaA  HgammaA  HdeltaF  HgammaF  D(4000)    B4_VN   CaII8498   CaII8542   CaII8662   MgI8807   H8_3889   H9_3835  H10_3798     BH-HK
#   (yr)        (A)      (A)      (A)      (A)       .        .         (A)        (A)        (A)       (A)       (A)       (A)       (A)        (A)
  4.000000    6.0189   6.3277   5.1279   5.4286   1.0481   1.0111   999.0000   999.0000   999.0000  999.0000    5.4832    4.6722    3.7680    0.0877
  4.301030    6.0189   6.3277   5.1279   5.4286   1.0481   1.0111   999.0000   999.0000   999.0000  999.0000    5.4832    4.6722    3.7680    0.0877
  4.477121    6.0189   6.3277   5.1279   5.4286   1.0481   1.0111   999.0000   999.0000   999.0000  999.0000    5.4832    4.6722    3.7680    0.0877
  4.602060    6.0189   6.3277   5.1279   5.4286   1.0481   1.0111   999.0000   999.0000   999.0000  999.0000    5.4832    4.6722    3.7680    0.0877
  4.698970    6.0189   6.3277   5.1279   5.4286   1.0481   1.0111   999.0000   999.0000   999.0000  999.0000    5.4832    4.6722    3.7680    0.0877
  4.778151    6.0189   6.3277   5.1279   5.4286   1.0481   1.0111   999.0000   999.0000   999.0000  999.0000    5.4832    4.6722    3.7680    0.0877
  4.845098    6.0119   6.3259   5.1219   5.4276   1.0479   1.0111   999.0000   999.0000   999.0000  999.0000    5.4791    4.6663    3.7629    0.0876
  4.903090    5.9702   6.3096   5.0854   5.4156   1.0465   1.0107   999.0000   999.0000   999.0000  999.0000    5.4552    4.6315    3.7335    0.0871
  4.954243    5.9609   6.3084   5.0771   5.4154   1.0462   1.0106   999.0000   999.0000   999.0000  999.0000    5.4519    4.6245    3.7278    0.0870
  5.000000    5.9653   6.3119   5.0811   5.4183   1.0464   1.0106   999.0000   999.0000   999.0000  999.0000    5.4553    4.6286    3.7315    0.0870
  5.060698    5.9649   6.3118   5.0808   5.4183   1.0464   1.0106   999.0000   999.0000   999.0000  999.0000    5.4551    4.6283    3.7313    0.0870
  5.113944    5.9529   6.3035   5.0703   5.4115   1.0460   1.0105   999.0000   999.0000   999.0000  999.0000    5.4464    4.6185    3.7228    0.0869
  5.161368    6.1751   6.4724   5.2637   5.5501   1.0533   1.0129   999.0000   999.0000   999.0000  999.0000    5.6094    4.8140    3.8903    0.0899
  5.204120    6.1786   6.4751   5.2668   5.5524   1.0534   1.0129   999.0000   999.0000   999.0000  999.0000    5.6121    4.8172    3.8932    0.0900
  5.243038    6.1845   6.4802   5.2725   5.5570   1.0536   1.0130   999.0000   999.0000   999.0000  999.0000    5.6169    4.8234    3.8989    0.0901
  5.255272    6.1835   6.4796   5.2717   5.5566   1.0535   1.0129   999.0000   999.0000   999.0000  999.0000    5.6162    4.8228    3.8984    0.0900
  5.278754    6.1812   6.4782   5.2698   5.5556   1.0534   1.0129   999.0000   999.0000   999.0000  999.0000    5.6147    4.8212    3.8972    0.0900
  5.301030    6.1825   6.4793   5.2711   5.5565   1.0535   1.0129   999.0000   999.0000   999.0000  999.0000    5.6157    4.8226    3.8985    0.0900
  5.397940    6.1778   6.4761   5.2672   5.5541   1.0533   1.0128   999.0000   999.0000   999.0000  999.0000    5.6123    4.8192    3.8957    0.0899
  5.477121    6.1724   6.4724   5.2626   5.5511   1.0531   1.0128   999.0000   999.0000   999.0000  999.0000    5.6085    4.8149    3.8921    0.0899
  5.544068    6.1595   6.4625   5.2515   5.5431   1.0527   1.0126   999.0000   999.0000   999.0000  999.0000    5.5987    4.8042    3.8830    0.0897
  5.602060    6.1589   6.4626   5.2513   5.5434   1.0527   1.0126   999.0000   999.0000   999.0000  999.0000    5.5985    4.8044    3.8835    0.0897
  5.653213    6.3268   6.5920   5.3977   5.6499   1.0582   1.0144   999.0000   999.0000   999.0000  999.0000    5.7232    4.9537    4.0121    0.0920
  5.698970    6.3578   6.6160   5.4250   5.6698   1.0593   1.0147   999.0000   999.0000   999.0000  999.0000    5.7463    4.9817    4.0365    0.0924
  5.740363    6.3480   6.6088   5.4166   5.6639   1.0589   1.0146   999.0000   999.0000   999.0000  999.0000    5.7390    4.9735    4.0295    0.0923
  5.778151    6.3421   6.6048   5.4115   5.6607   1.0587   1.0145   999.0000   999.0000   999.0000  999.0000    5.7346    4.9686    4.0253    0.0922
  5.812913    6.3799   6.6351   5.4445   5.6858   1.0600   1.0149   999.0000   999.0000   999.0000  999.0000    5.7631    5.0027    4.0549    0.0927
  5.845098    6.5320   6.7528   5.5771   5.7828   1.0651   1.0166   999.0000   999.0000   999.0000  999.0000    5.8772    5.1384    4.1724    0.0948
  5.875061    6.5744   6.7868   5.6143   5.8109   1.0666   1.0171   999.0000   999.0000   999.0000  999.0000    5.9094    5.1769    4.2059    0.0954
  5.903090    6.7893   6.9543   5.8016   5.9490   1.0740   1.0195   999.0000   999.0000   999.0000  999.0000    6.0722    5.3698    4.3737    0.0984
  5.929419    6.8420   6.9969   5.8476   5.9843   1.0758   1.0200   999.0000   999.0000   999.0000  999.0000    6.1128    5.4176    4.4156    0.0991
  5.954243    7.1239   7.2204   6.0934   6.1690   1.0857   1.0232   999.0000   999.0000   999.0000  999.0000    6.3299    5.6733    4.6397    0.1031
  5.977724    7.1317   7.2264   6.1005   6.1742   1.0860   1.0233   999.0000   999.0000   999.0000  999.0000    6.3360    5.6807    4.6464    0.1032
  6.000000    7.3020   7.3624   6.2494   6.2870   1.0921   1.0253   999.0000   999.0000   999.0000  999.0000    6.4689    5.8368    4.7843    0.1056
  6.041393    7.3102   7.3688   6.2570   6.2927   1.0924   1.0253   999.0000   999.0000   999.0000  999.0000    6.4755    5.8448    4.7917    0.1057
  6.079181    7.3081   7.3669   6.2559   6.2916   1.0923   1.0253   999.0000   999.0000   999.0000  999.0000    6.4741    5.8437    4.7913    0.1056
  6.113944    7.3062   7.3651   6.2549   6.2906   1.0922   1.0252   999.0000   999.0000   999.0000  999.0000    6.4729    5.8428    4.7909    0.1056
  6.146128    7.3052   7.3641   6.2543   6.2900   1.0922   1.0252   999.0000   999.0000   999.0000  999.0000    6.4722    5.8422    4.7906    0.1056
  6.176091    7.3035   7.3626   6.2534   6.2892   1.0921   1.0252   999.0000   999.0000   999.0000  999.0000    6.4712    5.8414    4.7903    0.1055
  6.204120    7.3007   7.3599   6.2519   6.2877   1.0920   1.0251   999.0000   999.0000   999.0000  999.0000    6.4694    5.8399    4.7896    0.1055
  6.230449    7.2962   7.3557   6.2494   6.2853   1.0918   1.0250   999.0000   999.0000   999.0000  999.0000    6.4665    5.8376    4.7887    0.1054
  6.255272    7.2945   7.3542   6.2485   6.2845   1.0917   1.0249   999.0000   999.0000   999.0000  999.0000    6.4654    5.8367    4.7883    0.1053
  6.278754    7.2922   7.3520   6.2472   6.2833   1.0916   1.0249   999.0000   999.0000   999.0000  999.0000    6.4639    5.8355    4.7878    0.1053
  6.301030    7.2890   7.3491   6.2455   6.2816   1.0915   1.0248   999.0000   999.0000   999.0000  999.0000    6.4619    5.8339    4.7871    0.1052
  6.322219    7.2858   7.3461   6.2438   6.2799   1.0913   1.0247   999.0000   999.0000   999.0000  999.0000    6.4598    5.8322    4.7864    0.1052
  6.342422    7.2819   7.3424   6.2416   6.2779   1.0911   1.0246   999.0000   999.0000   999.0000  999.0000    6.4573    5.8302    4.7856    0.1051
  6.361728    7.2767   7.3376   6.2388   6.2752   1.0909   1.0245   999.0000   999.0000   999.0000  999.0000    6.4539    5.8275    4.7845    0.1050
  6.380211    7.1000   7.1555   6.0858   6.1314   1.0855   1.0225   999.0000   999.0000   999.0000  999.0000    6.2988    5.6763    4.6652    0.1021
  6.397940    6.7735   6.8187   5.8027   5.8648   1.0757   1.0188   999.0000   999.0000   999.0000  999.0000    6.0125    5.3974    4.4461    0.0968
  6.414973    6.2109   6.2369   5.3144   5.4041   1.0593   1.0127   999.0000   999.0000   999.0000  999.0000    5.5215    4.9201    4.0746    0.0876
  6.431364    5.7007   5.7087   4.8734   4.9868   1.0449   1.0072   999.0000   999.0000   999.0000  999.0000    5.0802    4.4929    3.7468    0.0794
  6.447158    5.2001   5.1897   4.4412   4.5767   1.0312   1.0019   999.0000   999.0000   999.0000  999.0000    4.6500    4.0778    3.4320    0.0713
  6.462398    4.8173   4.7920   4.1108   4.2625   1.0211   0.9980   999.0000   999.0000   999.0000  999.0000    4.3227    3.7627    3.1952    0.0651
  6.477121    4.5287   4.4920   3.8621   4.0256   1.0136   0.9950   999.0000   999.0000   999.0000  999.0000    4.0771    3.5268    3.0193    0.0604
  6.491362    4.4855   4.0064   3.6819   3.6076   1.0376   1.0143   999.0000   999.0000   999.0000  999.0000    3.9413    3.6466    3.0658    0.0693
  6.505150    4.2205   3.3360   3.3663   3.0635   1.0448   1.0234   999.0000   999.0000   999.0000  999.0000    3.8075    3.6194    3.0344    0.0692
  6.518514    4.2478   3.3509   3.3923   3.0789   1.0502   1.0276   999.0000   999.0000   999.0000  999.0000    3.8377    3.6334    3.0487    0.0709
  6.531479    4.3177   3.4013   3.4834   3.1674   1.0579   1.0327   999.0000   999.0000   999.0000  999.0000    3.9298    3.7460    3.1226    0.0762
  6.544068    4.8006   3.9549   3.8598   3.5741   1.0718   1.0393   999.0000   999.0000   999.0000  999.0000    4.3300    4.0772    3.3317    0.0853
  6.556303    5.0291   4.1401   4.0736   3.8177   1.1095   1.0662   999.0000   999.0000   999.0000  999.0000    4.5799    4.3837    3.4989    0.1055
  6.568202    5.7286   4.9063   4.6022   4.4137   1.1590   1.0971   999.0000   999.0000   999.0000  999.0000    5.1407    4.9007    3.7688    0.1310
  6.579783    5.7116   5.0964   4.6793   4.5967   1.1434   1.0852   999.0000   999.0000   999.0000  999.0000    5.1614    4.8016    3.7297    0.1260
  6.591064    5.1013   4.2076   4.3813   4.1950   1.1824   1.1192   999.0000   999.0000   999.0000  999.0000    5.0252    4.8456    3.6947    0.1408
  6.602060    4.3469   3.0755   3.9591   3.5139   1.1860   1.1270   999.0000   999.0000   999.0000  999.0000    4.8452    4.7153    3.6090    0.1307
  6.612784    3.6745   2.2099   3.5627   2.9739   1.1731   1.1225   999.0000   999.0000   999.0000  999.0000    4.5577    4.4673    3.4641    0.1184
  6.623249    3.6144   2.0756   3.5987   2.9490   1.1860   1.1326   999.0000   999.0000   999.0000  999.0000    4.7092    4.6005    3.5353    0.1221
  6.633469    3.4497   1.7267   3.5174   2.7819   1.2120   1.1539   999.0000   999.0000   999.0000  999.0000    4.7905    4.7539    3.5822    0.1294
  6.643453    3.4509   1.6175   3.4719   2.7671   1.2518   1.1855   999.0000   999.0000   999.0000  999.0000    4.8368    4.9560    3.5784    0.1450
  6.653213    4.2649   2.6359   3.9058   3.3685   1.2725   1.1954   999.0000   999.0000   999.0000  999.0000    5.1490    5.2518    3.6962    0.1611
  6.662758    4.7542   3.2876   4.2363   3.8056   1.2949   1.2073   999.0000   999.0000   999.0000  999.0000    5.4226    5.4995    3.8192    0.1744
  6.672098    4.4937   2.9083   4.1219   3.6437   1.3292   1.2359   999.0000   999.0000   999.0000  999.0000    5.4598    5.6207    3.8098    0.1844
  6.681241    4.4460   2.7300   4.1057   3.5514   1.3471   1.2503   999.0000   999.0000   999.0000  999.0000    5.5877    5.7349    3.8486    0.1880
  6.690196    4.3702   2.5990   4.0625   3.4905   1.3471   1.2518   999.0000   999.0000   999.0000  999.0000    5.5588    5.6988    3.8529    0.1887
  6.698970    3.9819   2.1995   3.8342   3.2960   1.3485   1.2572   999.0000   999.0000   999.0000  999.0000    5.2469    5.5527    3.7567    0.1920
  6.720160    3.7850   2.3607   3.7064   3.4448   1.3387   1.2517   999.0000   999.0000   999.0000  999.0000    4.6746    5.3028    3.6202    0.2045
  6.740363    3.8830   2.3625   3.8101   3.4068   1.3463   1.2508   999.0000   999.0000   999.0000  999.0000    4.9433    5.6131    3.6789    0.1947
  6.759668    6.3986   5.2086   5.3011   4.9530   1.3306   1.2140   999.0000   999.0000   999.0000  999.0000    6.4326    6.3279    4.3083    0.1946
  6.778151    6.1890   4.8527   5.2425   4.7883   1.3317   1.2166   999.0000   999.0000   999.0000  999.0000    6.5178    6.3278    4.3989    0.1910
  6.795880    5.2617   3.6083   4.7722   4.1221   1.3349   1.2267   999.0000   999.0000   999.0000  999.0000    6.2720    6.2143    4.3340    0.1837
  6.812913    6.8217   5.5381   5.8703   5.2319   1.2466   1.1462   999.0000   999.0000   999.0000  999.0000    6.9375    6.3347    4.7973    0.1614
  6.829304    7.6450   6.6245   6.3330   5.8429   1.2213   1.1204   999.0000   999.0000   999.0000  999.0000    7.1398    6.4293    4.9131    0.1573
  6.845098    7.9245   7.0279   6.5090   6.0806   1.2190   1.1160   999.0000   999.0000   999.0000  999.0000    7.2670    6.5335    4.9848    0.1574
  6.860338    8.1230   7.3230   6.6557   6.2676   1.2138   1.1099   999.0000   999.0000   999.0000  999.0000    7.3714    6.6267    5.0627    0.1559
  6.875061    8.2873   7.5619   6.7624   6.4083   1.2102   1.1057   999.0000   999.0000   999.0000  999.0000    7.4444    6.6821    5.1096    0.1549
  6.903090    8.3796   7.7462   6.7134   6.4394   1.2148   1.1098   999.0000   999.0000   999.0000  999.0000    7.3766    6.5718    4.9780    0.1574
  6.929419    7.9259   7.3251   6.3660   6.1297   1.1979   1.1026   999.0000   999.0000   999.0000  999.0000    6.9857    6.2140    4.7165    0.1494
  6.954243    6.8337   6.3059   5.6702   5.4748   1.1443   1.0724   999.0000   999.0000   999.0000  999.0000    6.1623    5.5126    4.2957    0.1239
  6.977724    6.5850   6.1837   5.5000   5.3626   1.1162   1.0535   999.0000   999.0000   999.0000  999.0000    5.9003    5.2571    4.1612    0.1112
  7.000000    6.2482   5.9357   5.2463   5.1655   1.0970   1.0422   999.0000   999.0000   999.0000  999.0000    5.5928    4.9754    3.9776    0.1020
  7.021189    5.9799   5.7432   5.0510   5.0159   1.0815   1.0328   999.0000   999.0000   999.0000  999.0000    5.3554    4.7614    3.8450    0.0945
  7.041393    6.2467   6.0698   5.2337   5.2280   1.0856   1.0337   999.0000   999.0000   999.0000  999.0000    5.5123    4.9079    3.9410    0.0973
  7.060698    6.9735   6.7970   5.7767   5.7569   1.1077   1.0438   999.0000   999.0000   999.0000  999.0000    6.0761    5.4190    4.3033    0.1096
  7.079181    6.8066   6.6240   5.6521   5.6359   1.1008   1.0404   999.0000   999.0000   999.0000  999.0000    5.9604    5.2923    4.2305    0.1066
  7.096910    5.9109   5.7136   5.0373   5.0177   1.0728   1.0264   999.0000   999.0000   999.0000  999.0000    5.3266    4.7388    3.8633    0.0909
  7.113944    5.8832   5.6701   5.0216   4.9903   1.0735   1.0270   999.0000   999.0000   999.0000  999.0000    5.3143    4.7325    3.8554    0.0909
  7.130334    5.8843   5.6514   5.0238   4.9798   1.0757   1.0286   999.0000   999.0000   999.0000  999.0000    5.3239    4.7445    3.8578    0.0917
  7.146128    5.8929   5.6398   5.0337   4.9765   1.0780   1.0302   999.0000   999.0000   999.0000  999.0000    5.3419    4.7642    3.8675    0.0926
  7.161368    5.9509   5.6941   5.0776   5.0167   1.0809   1.0319   999.0000   999.0000   999.0000  999.0000    5.3903    4.8113    3.8970    0.0940
  7.176091    6.1402   5.8577   5.2158   5.1408   1.0914   1.0381   999.0000   999.0000   999.0000  999.0000    5.5512    4.9645    3.9905    0.0993
  7.204120    6.3700   5.9659   5.4195   5.2696   1.1101   1.0499   999.0000   999.0000   999.0000  999.0000    5.8239    5.2299    4.1692    0.1080
  7.230449    6.4782   5.8981   5.5761   5.3078   1.1254   1.0597   999.0000   999.0000   999.0000  999.0000    6.0640    5.4691    4.3571    0.1144
  7.255272    6.4744   5.6420   5.7162   5.2682   1.1389   1.0684   999.0000   999.0000   999.0000  999.0000    6.3145    5.7301    4.5984    0.1193
  7.278754    6.7032   5.7892   5.9363   5.4233   1.1521   1.0754   999.0000   999.0000   999.0000  999.0000    6.5882    5.9962    4.8064    0.1253
  7.301030    6.7054   5.7845   5.9378   5.4212   1.1532   1.0762   999.0000   999.0000   999.0000  999.0000    6.5950    6.0032    4.8084    0.1257
  7.322219    6.7247   5.8157   5.9481   5.4387   1.1532   1.0760   999.0000   999.0000   999.0000  999.0000    6.6013    6.0084    4.8106    0.1258
  7.342422    6.7361   5.8429   5.9556   5.4544   1.1530   1.0757   999.0000   999.0000   999.0000  999.0000    6.6074    6.0152    4.8150    0.1258
  7.361728    6.7397   5.8446   5.9559   5.4540   1.1548   1.0770   999.0000   999.0000   999.0000  999.0000    6.6188    6.0252    4.8173    0.1265
