#                                                     Mon Jul 29 20:41:13 2019
#          I------------------------------------------------------------------------------------------------------------------------I
#          I                                                                                                                        I
#          I      BC_GALAXEV  ---  MODEL PARAMETERS:   Generic file name for this model = cb2018_z008_chab_hr_pmiles_ssp            I
#          I                                                                                                                        I
#          I      TRACKS: Padova 2013 + Marigo 2013, X=0.729, Y=0.263, Z=0.008                                                      I
#          I                                                                                                                        I
#          I      S.F.R.: SSP = Zero Length Burst at t = 0                                                                          I
#          I                                                                                                                        I
#          I                                                                                                                        I
#          I      I.M.F.: Lognormal + power law                                                                                     I
#          I                                                                      mass in      number                               I
#          I                                                  from m     to m     segment    of stars      c                        I
#          I                                        lognormal   0.10     1.00      0.4057      1.3076                               I
#          I                                          x=1.3     1.00   100.00      0.5943      0.1827                               I
#          I                                                                                                                        I
#          I                                                           totals      1.0000      1.4903  0.6710 Mo/star               I
#          I                                                                                                                        I
#          I                                                                                                                        I
#          I                                                                                                                        I
#          I                                                                                                                        I
#          I      LISTED: Rest frame properties                                                                                     I
#          I                                                                                                                        I
#          I                                                                                                                        I
#          I                              (C) 1995-2017 G. Bruzual A. & S. Charlot - All Rights Reserved                            I
#          I------------------------------------------------------------------------------------------------------------------------I
#
#    (1)        (2)      (3)      (4)      (5)      (6)      (7)       (8)        (9)        (10)      (11)      (12)      (13)      (14)      (15)
#
# Index_No.    WO-1:    WO-2:    WO-3:    WO-4:    GC-1:    4000A    DTT-Ca1    DTT-Ca2    DTT-Ca3   DTT-MgI     DM-04     DM-04     DM-04       BH:
# log-age    HdeltaA  HgammaA  HdeltaF  HgammaF  D(4000)    B4_VN   CaII8498   CaII8542   CaII8662   MgI8807   H8_3889   H9_3835  H10_3798     BH-HK
#   (yr)        (A)      (A)      (A)      (A)       .        .         (A)        (A)        (A)       (A)       (A)       (A)       (A)        (A)
  4.000000    5.7091   5.9117   4.9941   5.2540   1.0667   1.0212   999.0000   999.0000   999.0000  999.0000    5.5474    4.9329    3.9045    0.0742
  4.301030    5.7091   5.9117   4.9941   5.2540   1.0667   1.0212   999.0000   999.0000   999.0000  999.0000    5.5474    4.9329    3.9045    0.0742
  4.477121    5.7091   5.9117   4.9941   5.2540   1.0667   1.0212   999.0000   999.0000   999.0000  999.0000    5.5474    4.9329    3.9045    0.0742
  4.602060    5.7091   5.9117   4.9941   5.2540   1.0667   1.0212   999.0000   999.0000   999.0000  999.0000    5.5474    4.9329    3.9045    0.0742
  4.698970    5.7091   5.9117   4.9941   5.2540   1.0667   1.0212   999.0000   999.0000   999.0000  999.0000    5.5474    4.9329    3.9045    0.0742
  4.778151    5.7091   5.9117   4.9941   5.2540   1.0667   1.0212   999.0000   999.0000   999.0000  999.0000    5.5474    4.9329    3.9045    0.0742
  4.845098    5.7026   5.9105   4.9884   5.2532   1.0665   1.0211   999.0000   999.0000   999.0000  999.0000    5.5433    4.9268    3.8993    0.0741
  4.903090    5.6639   5.8970   4.9537   5.2425   1.0650   1.0206   999.0000   999.0000   999.0000  999.0000    5.5193    4.8907    3.8688    0.0737
  4.954243    5.6552   5.8964   4.9458   5.2425   1.0647   1.0205   999.0000   999.0000   999.0000  999.0000    5.5161    4.8835    3.8630    0.0736
  5.000000    5.6593   5.8995   4.9497   5.2453   1.0648   1.0206   999.0000   999.0000   999.0000  999.0000    5.5195    4.8879    3.8668    0.0736
  5.060698    5.6589   5.8995   4.9493   5.2454   1.0648   1.0206   999.0000   999.0000   999.0000  999.0000    5.5193    4.8876    3.8666    0.0736
  5.113944    5.6477   5.8920   4.9394   5.2390   1.0644   1.0204   999.0000   999.0000   999.0000  999.0000    5.5106    4.8773    3.8579    0.0735
  5.161368    5.8539   6.0432   5.1231   5.3687   1.0725   1.0232   999.0000   999.0000   999.0000  999.0000    5.6741    5.0812    4.0319    0.0760
  5.204120    5.8571   6.0456   5.1261   5.3709   1.0727   1.0233   999.0000   999.0000   999.0000  999.0000    5.6768    5.0846    4.0350    0.0760
  5.243038    5.8626   6.0502   5.1315   5.3753   1.0729   1.0233   999.0000   999.0000   999.0000  999.0000    5.6818    5.0913    4.0411    0.0761
  5.255272    5.8617   6.0497   5.1308   5.3750   1.0728   1.0233   999.0000   999.0000   999.0000  999.0000    5.6811    5.0907    4.0406    0.0760
  5.278754    5.8596   6.0484   5.1290   5.3740   1.0727   1.0233   999.0000   999.0000   999.0000  999.0000    5.6796    5.0892    4.0394    0.0760
  5.301030    5.8608   6.0493   5.1302   5.3749   1.0728   1.0233   999.0000   999.0000   999.0000  999.0000    5.6807    5.0907    4.0408    0.0760
  5.397940    5.8565   6.0466   5.1266   5.3727   1.0726   1.0232   999.0000   999.0000   999.0000  999.0000    5.6775    5.0873    4.0380    0.0760
  5.477121    5.8515   6.0432   5.1223   5.3699   1.0724   1.0231   999.0000   999.0000   999.0000  999.0000    5.6736    5.0829    4.0344    0.0759
  5.544068    5.8395   6.0343   5.1118   5.3624   1.0719   1.0230   999.0000   999.0000   999.0000  999.0000    5.6639    5.0719    4.0250    0.0757
  5.602060    5.8390   6.0344   5.1116   5.3628   1.0719   1.0229   999.0000   999.0000   999.0000  999.0000    5.6638    5.0723    4.0255    0.0757
  5.653213    5.9945   6.1502   5.2505   5.4626   1.0781   1.0251   999.0000   999.0000   999.0000  999.0000    5.7889    5.2278    4.1593    0.0776
  5.698970    6.0232   6.1717   5.2763   5.4812   1.0793   1.0254   999.0000   999.0000   999.0000  999.0000    5.8120    5.2571    4.1847    0.0779
  5.740363    6.0142   6.1652   5.2684   5.4757   1.0789   1.0253   999.0000   999.0000   999.0000  999.0000    5.8048    5.2487    4.1775    0.0778
  5.778151    6.0086   6.1617   5.2636   5.4728   1.0787   1.0252   999.0000   999.0000   999.0000  999.0000    5.8005    5.2436    4.1732    0.0778
  5.812913    6.0436   6.1889   5.2949   5.4962   1.0801   1.0257   999.0000   999.0000   999.0000  999.0000    5.8291    5.2792    4.2040    0.0782
  5.845098    6.1843   6.2942   5.4204   5.5870   1.0858   1.0276   999.0000   999.0000   999.0000  999.0000    5.9433    5.4204    4.3262    0.0799
  5.875061    6.2235   6.3246   5.4555   5.6134   1.0874   1.0282   999.0000   999.0000   999.0000  999.0000    5.9756    5.4605    4.3611    0.0804
  5.903090    6.4218   6.4743   5.6324   5.7423   1.0957   1.0310   999.0000   999.0000   999.0000  999.0000    6.1382    5.6608    4.5355    0.0828
  5.929419    6.4703   6.5125   5.6758   5.7754   1.0977   1.0317   999.0000   999.0000   999.0000  999.0000    6.1788    5.7105    4.5790    0.0834
  5.954243    6.7298   6.7122   5.9073   5.9477   1.1088   1.0354   999.0000   999.0000   999.0000  999.0000    6.3954    5.9755    4.8119    0.0866
  5.977724    6.7370   6.7177   5.9139   5.9526   1.1091   1.0355   999.0000   999.0000   999.0000  999.0000    6.4015    5.9832    4.8189    0.0867
  6.000000    6.8935   6.8391   6.0539   6.0578   1.1159   1.0377   999.0000   999.0000   999.0000  999.0000    6.5339    6.1449    4.9622    0.0886
  6.041393    6.9011   6.8448   6.0611   6.0631   1.1162   1.0378   999.0000   999.0000   999.0000  999.0000    6.5406    6.1534    4.9701    0.0887
  6.079181    6.8992   6.8430   6.0601   6.0621   1.1161   1.0378   999.0000   999.0000   999.0000  999.0000    6.5395    6.1526    4.9698    0.0887
  6.113944    6.8976   6.8414   6.0592   6.0613   1.1160   1.0377   999.0000   999.0000   999.0000  999.0000    6.5384    6.1519    4.9696    0.0886
  6.146128    6.8966   6.8405   6.0587   6.0608   1.1160   1.0377   999.0000   999.0000   999.0000  999.0000    6.5378    6.1514    4.9695    0.0886
  6.176091    6.8952   6.8391   6.0580   6.0601   1.1159   1.0377   999.0000   999.0000   999.0000  999.0000    6.5369    6.1508    4.9693    0.0886
  6.204120    6.8926   6.8367   6.0566   6.0588   1.1158   1.0376   999.0000   999.0000   999.0000  999.0000    6.5353    6.1497    4.9689    0.0885
  6.230449    6.8886   6.8329   6.0545   6.0567   1.1156   1.0375   999.0000   999.0000   999.0000  999.0000    6.5328    6.1480    4.9684    0.0884
  6.255272    6.8871   6.8314   6.0537   6.0560   1.1155   1.0374   999.0000   999.0000   999.0000  999.0000    6.5319    6.1473    4.9682    0.0883
  6.278754    6.8851   6.8294   6.0526   6.0549   1.1154   1.0374   999.0000   999.0000   999.0000  999.0000    6.5306    6.1464    4.9679    0.0883
  6.301030    6.8823   6.8268   6.0512   6.0535   1.1153   1.0373   999.0000   999.0000   999.0000  999.0000    6.5288    6.1452    4.9675    0.0882
  6.322219    6.8794   6.8240   6.0496   6.0520   1.1152   1.0372   999.0000   999.0000   999.0000  999.0000    6.5271    6.1440    4.9671    0.0881
  6.342422    6.8759   6.8207   6.0478   6.0502   1.1150   1.0371   999.0000   999.0000   999.0000  999.0000    6.5249    6.1425    4.9667    0.0881
  6.361728    6.8713   6.8163   6.0454   6.0479   1.1148   1.0370   999.0000   999.0000   999.0000  999.0000    6.5220    6.1405    4.9660    0.0879
  6.380211    6.6972   6.6594   5.8921   5.9228   1.1097   1.0347   999.0000   999.0000   999.0000  999.0000    6.3707    5.9773    4.8460    0.0859
  6.397940    6.3746   6.3688   5.6075   5.6905   1.1004   1.0306   999.0000   999.0000   999.0000  999.0000    6.0909    5.6748    4.6242    0.0823
  6.414973    5.8155   5.8652   5.1138   5.2875   1.0847   1.0235   999.0000   999.0000   999.0000  999.0000    5.6090    5.1522    4.2449    0.0760
  6.431364    5.3060   5.4058   4.6650   4.9208   1.0709   1.0171   999.0000   999.0000   999.0000  999.0000    5.1744    4.6802    3.9073    0.0703
  6.447158    4.8032   4.9524   4.2225   4.5590   1.0578   1.0110   999.0000   999.0000   999.0000  999.0000    4.7492    4.2174    3.5802    0.0646
  6.462398    4.4168   4.6039   3.8821   4.2806   1.0479   1.0063   999.0000   999.0000   999.0000  999.0000    4.4244    3.8627    3.3320    0.0603
  6.477121    4.1244   4.3401   3.6249   4.0702   1.0407   1.0029   999.0000   999.0000   999.0000  999.0000    4.1802    3.5957    3.1467    0.0571
  6.491362    4.1009   3.8338   3.4637   3.6429   1.0623   1.0205   999.0000   999.0000   999.0000  999.0000    4.0659    3.7265    3.1925    0.0645
  6.505150    3.8667   3.1823   3.1836   3.1268   1.0683   1.0286   999.0000   999.0000   999.0000  999.0000    3.9504    3.7235    3.1720    0.0632
  6.518514    3.9208   3.1623   3.2225   3.1250   1.0747   1.0334   999.0000   999.0000   999.0000  999.0000    3.9901    3.7692    3.2072    0.0643
  6.531479    4.0558   3.2694   3.3607   3.2602   1.0813   1.0369   999.0000   999.0000   999.0000  999.0000    4.1112    3.9138    3.2942    0.0678
  6.544068    4.5397   3.7846   3.7295   3.6376   1.0944   1.0426   999.0000   999.0000   999.0000  999.0000    4.4803    4.2258    3.4711    0.0763
  6.556303    4.8001   4.0040   3.9947   3.9267   1.1284   1.0655   999.0000   999.0000   999.0000  999.0000    4.8096    4.5802    3.6672    0.0931
  6.568202    5.4954   4.7128   4.5461   4.5092   1.1768   1.0947   999.0000   999.0000   999.0000  999.0000    5.4123    5.1362    3.9492    0.1168
  6.579783    5.4889   4.9300   4.6359   4.7114   1.1630   1.0842   999.0000   999.0000   999.0000  999.0000    5.4267    5.0547    3.9316    0.1116
  6.591064    5.0448   4.2500   4.4604   4.4131   1.1996   1.1139   999.0000   999.0000   999.0000  999.0000    5.3740    5.1380    3.9608    0.1210
  6.602060    4.3043   3.2188   4.0024   3.6358   1.2069   1.1265   999.0000   999.0000   999.0000  999.0000    5.0660    4.8589    3.8318    0.1127
  6.612784    3.7346   2.5426   3.6254   3.1233   1.1956   1.1234   999.0000   999.0000   999.0000  999.0000    4.7351    4.5544    3.6822    0.1008
  6.623249    3.7553   2.5558   3.6905   3.1460   1.2057   1.1304   999.0000   999.0000   999.0000  999.0000    4.8690    4.6539    3.7447    0.1024
  6.633469    3.6002   2.2594   3.6233   2.9625   1.2324   1.1520   999.0000   999.0000   999.0000  999.0000    4.9191    4.7693    3.7865    0.1091
  6.643453    3.4784   2.0756   3.5376   2.8995   1.2765   1.1858   999.0000   999.0000   999.0000  999.0000    4.9473    4.9344    3.7824    0.1252
  6.653213    4.1748   2.9291   3.9253   3.5155   1.2967   1.1931   999.0000   999.0000   999.0000  999.0000    5.3109    5.2946    3.9049    0.1405
  6.662758    4.6948   3.5338   4.2975   3.9735   1.3182   1.2028   999.0000   999.0000   999.0000  999.0000    5.6666    5.6248    4.0467    0.1536
  6.672098    4.4859   3.2363   4.2197   3.8213   1.3526   1.2289   999.0000   999.0000   999.0000  999.0000    5.6958    5.7151    4.0478    0.1621
  6.681241    4.4166   3.0940   4.1822   3.7122   1.3703   1.2427   999.0000   999.0000   999.0000  999.0000    5.7470    5.7501    4.0702    0.1645
  6.690196    4.3540   3.0310   4.1361   3.7004   1.3689   1.2429   999.0000   999.0000   999.0000  999.0000    5.7135    5.7030    4.0909    0.1630
  6.698970    4.0927   2.7684   4.0067   3.6325   1.3689   1.2449   999.0000   999.0000   999.0000  999.0000    5.5489    5.6886    4.0686    0.1635
  6.720160    4.2428   3.0285   4.2007   4.0663   1.3528   1.2294   999.0000   999.0000   999.0000  999.0000    5.5016    5.9420    4.1451    0.1696
  6.740363    4.1292   2.8048   4.1578   3.7070   1.3676   1.2385   999.0000   999.0000   999.0000  999.0000    5.5501    6.0824    4.0427    0.1679
  6.759668    6.2117   5.1339   5.3506   4.9902   1.3486   1.2069   999.0000   999.0000   999.0000  999.0000    6.6541    6.5446    4.4896    0.1724
  6.778151    6.0290   4.8639   5.2523   4.8145   1.3491   1.2103   999.0000   999.0000   999.0000  999.0000    6.6440    6.4327    4.5740    0.1681
  6.795880    5.2111   3.8215   4.8272   4.1578   1.3545   1.2220   999.0000   999.0000   999.0000  999.0000    6.3561    6.2573    4.5309    0.1593
  6.812913    6.8758   5.7258   5.9237   5.3513   1.2535   1.1317   999.0000   999.0000   999.0000  999.0000    6.9657    6.4668    4.9205    0.1357
  6.829304    7.4773   6.7521   6.2702   5.9651   1.2316   1.1130   999.0000   999.0000   999.0000  999.0000    7.1619    6.5775    4.9934    0.1369
  6.845098    7.7238   7.0561   6.4259   6.1539   1.2323   1.1114   999.0000   999.0000   999.0000  999.0000    7.2885    6.6833    5.0463    0.1390
  6.860338    7.9228   7.2966   6.5657   6.3095   1.2301   1.1078   999.0000   999.0000   999.0000  999.0000    7.4002    6.7827    5.1057    0.1396
  6.875061    8.0593   7.4721   6.6612   6.4226   1.2283   1.1055   999.0000   999.0000   999.0000  999.0000    7.4759    6.8502    5.1482    0.1397
  6.903090    8.0154   7.4674   6.5591   6.3795   1.2317   1.1096   999.0000   999.0000   999.0000  999.0000    7.3726    6.7257    5.0321    0.1410
  6.929419    7.5797   7.0429   6.2171   6.0746   1.2159   1.1027   999.0000   999.0000   999.0000  999.0000    6.9942    6.3811    4.8062    0.1328
  6.954243    6.6452   6.1757   5.5691   5.4833   1.1675   1.0754   999.0000   999.0000   999.0000  999.0000    6.2372    5.7306    4.4416    0.1096
  6.977724    6.3866   6.0092   5.3858   5.3483   1.1419   1.0592   999.0000   999.0000   999.0000  999.0000    5.9789    5.4943    4.3235    0.0981
  7.000000    6.0426   5.7418   5.1252   5.1473   1.1242   1.0493   999.0000   999.0000   999.0000  999.0000    5.6851    5.2199    4.1574    0.0902
  7.021189    5.7612   5.5286   4.9222   4.9911   1.1098   1.0412   999.0000   999.0000   999.0000  999.0000    5.4589    5.0124    4.0397    0.0835
  7.041393    6.0722   5.8722   5.1220   5.2087   1.1183   1.0453   999.0000   999.0000   999.0000  999.0000    5.6574    5.1780    4.1207    0.0896
  7.060698    6.8119   6.6305   5.6742   5.7408   1.1423   1.0572   999.0000   999.0000   999.0000  999.0000    6.2444    5.6902    4.4374    0.1039
  7.079181    6.5354   6.3914   5.5075   5.5921   1.1299   1.0508   999.0000   999.0000   999.0000  999.0000    6.0758    5.5277    4.3695    0.0975
  7.096910    5.6539   5.4885   4.8905   4.9811   1.0995   1.0345   999.0000   999.0000   999.0000  999.0000    5.4192    4.9747    4.0523    0.0794
  7.113944    5.6518   5.4603   4.8848   4.9605   1.1007   1.0352   999.0000   999.0000   999.0000  999.0000    5.4119    4.9770    4.0495    0.0794
  7.130334    5.6733   5.4554   4.8954   4.9561   1.1032   1.0367   999.0000   999.0000   999.0000  999.0000    5.4241    4.9947    4.0547    0.0802
  7.146128    5.6988   5.4572   4.9126   4.9584   1.1056   1.0382   999.0000   999.0000   999.0000  999.0000    5.4438    5.0188    4.0667    0.0809
  7.161368    5.7609   5.5065   4.9589   4.9943   1.1087   1.0399   999.0000   999.0000   999.0000  999.0000    5.4927    5.0694    4.0965    0.0823
  7.176091    5.9526   5.6710   5.1004   5.1139   1.1190   1.0460   999.0000   999.0000   999.0000  999.0000    5.6536    5.2188    4.1803    0.0874
  7.204120    6.2146   5.8418   5.3229   5.2604   1.1359   1.0557   999.0000   999.0000   999.0000  999.0000    5.9224    5.4746    4.3429    0.0947
  7.230449    6.3814   5.8840   5.5100   5.3359   1.1474   1.0619   999.0000   999.0000   999.0000  999.0000    6.1523    5.7090    4.5223    0.0981
  7.255272    6.4612   5.7885   5.6944   5.3500   1.1544   1.0648   999.0000   999.0000   999.0000  999.0000    6.3816    5.9706    4.7645    0.0974
  7.278754    6.6969   5.9660   5.9225   5.5073   1.1647   1.0698   999.0000   999.0000   999.0000  999.0000    6.6417    6.2293    4.9601    0.1014
  7.301030    6.7000   5.9607   5.9250   5.5036   1.1657   1.0705   999.0000   999.0000   999.0000  999.0000    6.6480    6.2354    4.9621    0.1017
  7.322219    6.7153   5.9814   5.9353   5.5156   1.1659   1.0705   999.0000   999.0000   999.0000  999.0000    6.6559    6.2425    4.9651    0.1021
  7.342422    6.7272   6.0036   5.9455   5.5306   1.1665   1.0709   999.0000   999.0000   999.0000  999.0000    6.6763    6.2516    4.9780    0.1023
  7.361728    6.7317   5.9962   5.9454   5.5265   1.1681   1.0721   999.0000   999.0000   999.0000  999.0000    6.6817    6.2598    4.9778    0.1028
