#                                                     Mon Jul 29 20:38:09 2019
#          I------------------------------------------------------------------------------------------------------------------------I
#          I                                                                                                                        I
#          I      BC_GALAXEV  ---  MODEL PARAMETERS:   Generic file name for this model = cb2018_z0002_chab_hr_pmiles_ssp           I
#          I                                                                                                                        I
#          I      TRACKS: Padova 2013 + Marigo 2013, X=0.7508, Y=0.249, Z=0.0002                                                    I
#          I                                                                                                                        I
#          I      S.F.R.: SSP = Zero Length Burst at t = 0                                                                          I
#          I                                                                                                                        I
#          I                                                                                                                        I
#          I      I.M.F.: Lognormal + power law                                                                                     I
#          I                                                                      mass in      number                               I
#          I                                                  from m     to m     segment    of stars      c                        I
#          I                                        lognormal   0.10     1.00      0.4057      1.3076                               I
#          I                                          x=1.3     1.00   100.00      0.5943      0.1827                               I
#          I                                                                                                                        I
#          I                                                           totals      1.0000      1.4903  0.6710 Mo/star               I
#          I                                                                                                                        I
#          I                                                                                                                        I
#          I                                                                                                                        I
#          I                                                                                                                        I
#          I      LISTED: Rest frame properties                                                                                     I
#          I                                                                                                                        I
#          I                                                                                                                        I
#          I                              (C) 1995-2017 G. Bruzual A. & S. Charlot - All Rights Reserved                            I
#          I------------------------------------------------------------------------------------------------------------------------I
#
#    (1)        (2)      (3)      (4)      (5)      (6)      (7)       (8)        (9)        (10)      (11)      (12)      (13)      (14)      (15)
#
# Index_No.    WO-1:    WO-2:    WO-3:    WO-4:    GC-1:    4000A    DTT-Ca1    DTT-Ca2    DTT-Ca3   DTT-MgI     DM-04     DM-04     DM-04       BH:
# log-age    HdeltaA  HgammaA  HdeltaF  HgammaF  D(4000)    B4_VN   CaII8498   CaII8542   CaII8662   MgI8807   H8_3889   H9_3835  H10_3798     BH-HK
#   (yr)        (A)      (A)      (A)      (A)       .        .         (A)        (A)        (A)       (A)       (A)       (A)       (A)        (A)
  4.000000    6.4640   7.1894   5.2873   5.9092   1.0661   1.0244   999.0000   999.0000   999.0000  999.0000    6.0875    4.9735    3.4312    0.0860
  4.301030    6.4640   7.1895   5.2873   5.9092   1.0661   1.0244   999.0000   999.0000   999.0000  999.0000    6.0875    4.9735    3.4312    0.0860
  4.477121    6.4640   7.1894   5.2873   5.9092   1.0661   1.0244   999.0000   999.0000   999.0000  999.0000    6.0875    4.9735    3.4312    0.0860
  4.602060    6.4640   7.1894   5.2873   5.9092   1.0661   1.0244   999.0000   999.0000   999.0000  999.0000    6.0875    4.9735    3.4312    0.0860
  4.698970    6.4640   7.1894   5.2873   5.9092   1.0661   1.0244   999.0000   999.0000   999.0000  999.0000    6.0875    4.9735    3.4312    0.0860
  4.778151    6.4640   7.1894   5.2873   5.9092   1.0661   1.0244   999.0000   999.0000   999.0000  999.0000    6.0875    4.9735    3.4312    0.0860
  4.845098    6.4625   7.1883   5.2860   5.9083   1.0661   1.0243   999.0000   999.0000   999.0000  999.0000    6.0864    4.9722    3.4303    0.0860
  4.903090    6.4505   7.1783   5.2761   5.9007   1.0657   1.0242   999.0000   999.0000   999.0000  999.0000    6.0769    4.9619    3.4225    0.0858
  4.954243    6.4445   7.1733   5.2712   5.8967   1.0655   1.0241   999.0000   999.0000   999.0000  999.0000    6.0721    4.9568    3.4186    0.0857
  5.000000    6.4367   7.1667   5.2647   5.8917   1.0652   1.0240   999.0000   999.0000   999.0000  999.0000    6.0660    4.9500    3.4135    0.0856
  5.060698    6.4319   7.1626   5.2607   5.8885   1.0651   1.0240   999.0000   999.0000   999.0000  999.0000    6.0622    4.9458    3.4104    0.0855
  5.113944    6.4225   7.1548   5.2530   5.8825   1.0647   1.0238   999.0000   999.0000   999.0000  999.0000    6.0548    4.9377    3.4042    0.0854
  5.161368    6.4212   7.1537   5.2519   5.8817   1.0647   1.0238   999.0000   999.0000   999.0000  999.0000    6.0538    4.9366    3.4034    0.0854
  5.204120    6.4174   7.1506   5.2488   5.8793   1.0646   1.0238   999.0000   999.0000   999.0000  999.0000    6.0509    4.9334    3.4010    0.0854
  5.243038    6.4135   7.1473   5.2456   5.8768   1.0644   1.0237   999.0000   999.0000   999.0000  999.0000    6.0478    4.9300    3.3985    0.0853
  5.255272    6.4104   7.1447   5.2430   5.8748   1.0643   1.0237   999.0000   999.0000   999.0000  999.0000    6.0453    4.9273    3.3964    0.0853
  5.278754    6.4104   7.1448   5.2430   5.8748   1.0643   1.0237   999.0000   999.0000   999.0000  999.0000    6.0453    4.9273    3.3964    0.0853
  5.301030    6.4080   7.1428   5.2411   5.8733   1.0642   1.0237   999.0000   999.0000   999.0000  999.0000    6.0435    4.9253    3.3949    0.0852
  5.397940    6.3921   7.1296   5.2280   5.8631   1.0637   1.0235   999.0000   999.0000   999.0000  999.0000    6.0310    4.9116    3.3846    0.0850
  5.477121    6.3801   7.1192   5.2181   5.8551   1.0633   1.0233   999.0000   999.0000   999.0000  999.0000    6.0214    4.9013    3.3769    0.0849
  5.544068    6.3693   7.1101   5.2092   5.8481   1.0629   1.0232   999.0000   999.0000   999.0000  999.0000    6.0129    4.8920    3.3699    0.0847
  5.602060    6.3588   7.1012   5.2005   5.8412   1.0625   1.0230   999.0000   999.0000   999.0000  999.0000    6.0045    4.8830    3.3632    0.0846
  5.653213    6.3393   7.0848   5.1844   5.8286   1.0619   1.0228   999.0000   999.0000   999.0000  999.0000    5.9892    4.8663    3.3506    0.0843
  5.698970    6.3268   7.0740   5.1741   5.8203   1.0614   1.0226   999.0000   999.0000   999.0000  999.0000    5.9792    4.8556    3.3425    0.0841
  5.740363    6.3103   7.0600   5.1606   5.8094   1.0609   1.0224   999.0000   999.0000   999.0000  999.0000    5.9661    4.8414    3.3319    0.0839
  5.778151    6.2951   7.0471   5.1481   5.7995   1.0604   1.0222   999.0000   999.0000   999.0000  999.0000    5.9541    4.8285    3.3222    0.0837
  5.812913    6.2833   7.0369   5.1383   5.7916   1.0600   1.0221   999.0000   999.0000   999.0000  999.0000    5.9447    4.8184    3.3147    0.0836
  5.845098    6.2658   7.0221   5.1239   5.7802   1.0594   1.0219   999.0000   999.0000   999.0000  999.0000    5.9309    4.8034    3.3035    0.0833
  5.875061    6.2444   7.0040   5.1063   5.7662   1.0587   1.0216   999.0000   999.0000   999.0000  999.0000    5.9140    4.7851    3.2898    0.0830
  5.903090    6.2311   6.9925   5.0954   5.7573   1.0583   1.0214   999.0000   999.0000   999.0000  999.0000    5.9035    4.7738    3.2813    0.0829
  5.929419    6.2094   6.9740   5.0775   5.7430   1.0575   1.0212   999.0000   999.0000   999.0000  999.0000    5.8863    4.7553    3.2674    0.0826
  5.954243    6.1886   6.9562   5.0602   5.7293   1.0568   1.0209   999.0000   999.0000   999.0000  999.0000    5.8698    4.7374    3.2541    0.0823
  5.977724    6.1734   6.9431   5.0477   5.7191   1.0563   1.0207   999.0000   999.0000   999.0000  999.0000    5.8578    4.7245    3.2444    0.0821
  6.000000    6.1573   6.9294   5.0345   5.7085   1.0558   1.0205   999.0000   999.0000   999.0000  999.0000    5.8450    4.7108    3.2342    0.0819
  6.041393    6.1184   6.8956   5.0025   5.6823   1.0545   1.0201   999.0000   999.0000   999.0000  999.0000    5.8141    4.6778    3.2096    0.0814
  6.079181    6.0855   6.8663   4.9754   5.6595   1.0535   1.0196   999.0000   999.0000   999.0000  999.0000    5.7874    4.6498    3.1887    0.0809
  6.113944    6.0395   6.8264   4.9375   5.6284   1.0519   1.0191   999.0000   999.0000   999.0000  999.0000    5.7506    4.6105    3.1595    0.0803
  6.146128    5.9980   6.7901   4.9033   5.6002   1.0505   1.0185   999.0000   999.0000   999.0000  999.0000    5.7173    4.5751    3.1331    0.0798
  6.176091    5.9130   6.7306   4.8335   5.5579   1.0485   1.0181   999.0000   999.0000   999.0000  999.0000    5.6756    4.5047    3.0812    0.0787
  6.204120    5.8046   6.6594   4.7442   5.5083   1.0457   1.0173   999.0000   999.0000   999.0000  999.0000    5.6225    4.4142    3.0146    0.0774
  6.230449    5.7047   6.5869   4.6619   5.4552   1.0426   1.0163   999.0000   999.0000   999.0000  999.0000    5.5594    4.3301    2.9526    0.0761
  6.255272    5.6265   6.5176   4.5974   5.4007   1.0399   1.0152   999.0000   999.0000   999.0000  999.0000    5.4928    4.2641    2.9039    0.0751
  6.278754    5.5752   6.4919   4.5553   5.3852   1.0385   1.0149   999.0000   999.0000   999.0000  999.0000    5.4746    4.2217    2.8730    0.0744
  6.301030    5.3363   6.3039   4.3584   5.2433   1.0309   1.0121   999.0000   999.0000   999.0000  999.0000    5.3035    4.0207    2.7258    0.0713
  6.322219    5.3165   6.2986   4.3423   5.2418   1.0303   1.0120   999.0000   999.0000   999.0000  999.0000    5.2986    4.0048    2.7144    0.0711
  6.342422    5.1771   6.1862   4.2274   5.1562   1.0258   1.0103   999.0000   999.0000   999.0000  999.0000    5.1955    3.8885    2.6299    0.0693
  6.361728    5.4138   6.3836   4.4228   5.3078   1.0331   1.0130   999.0000   999.0000   999.0000  999.0000    5.3769    4.0883    2.7757    0.0723
  6.380211    6.4076   7.2106   5.2450   5.9447   1.0657   1.0249   999.0000   999.0000   999.0000  999.0000    6.1465    4.9392    3.4086    0.0853
  6.397940    7.1681   7.8364   5.8769   6.4266   1.0921   1.0342   999.0000   999.0000   999.0000  999.0000    6.7411    5.6062    3.9193    0.0952
  6.414973    8.4749   8.8979   6.9679   7.2448   1.1414   1.0508   999.0000   999.0000   999.0000  999.0000    7.7749    6.7853    4.8544    0.1126
  6.431364    9.4101   9.6511   7.7527   7.8264   1.1797   1.0630   999.0000   999.0000   999.0000  999.0000    8.5289    7.6558    5.5730    0.1251
  6.447158   10.1609  10.2535   8.3855   8.2926   1.2126   1.0732   999.0000   999.0000   999.0000  999.0000    9.1448    8.3716    6.1830    0.1353
  6.462398   10.2230  10.2536   8.4675   8.3175   1.2191   1.0748   999.0000   999.0000   999.0000  999.0000    9.1955    8.4820    6.3178    0.1364
  6.477121    9.3871   9.3555   7.9005   7.7363   1.1992   1.0671   999.0000   999.0000   999.0000  999.0000    8.4993    7.9100    6.0080    0.1263
  6.491362    5.4879   4.2947   4.8535   4.2958   1.3283   1.1854   999.0000   999.0000   999.0000  999.0000    6.1588    5.9991    4.1755    0.1571
  6.505150    4.1592   2.7067   3.8590   3.2486   1.3769   1.2331   999.0000   999.0000   999.0000  999.0000    5.2749    5.2456    3.5190    0.1669
  6.518514    4.2790   2.9870   3.9477   3.4212   1.3432   1.2067   999.0000   999.0000   999.0000  999.0000    5.1953    5.1144    3.5744    0.1545
  6.531479    4.9724   3.9159   4.5819   4.0813   1.2819   1.1602   999.0000   999.0000   999.0000  999.0000    5.5581    5.4083    4.0329    0.1368
  6.544068    5.3291   4.4646   4.9359   4.5096   1.2450   1.1325   999.0000   999.0000   999.0000  999.0000    5.7732    5.5694    4.3003    0.1229
  6.556303    5.8618   5.2280   5.3475   5.0126   1.2125   1.1045   999.0000   999.0000   999.0000  999.0000    6.0289    5.7695    4.5421    0.1141
  6.568202    6.2150   5.7425   5.6081   5.3431   1.1923   1.0874   999.0000   999.0000   999.0000  999.0000    6.1694    5.8726    4.6759    0.1091
  6.579783    6.3450   5.9531   5.7456   5.5022   1.1788   1.0776   999.0000   999.0000   999.0000  999.0000    6.2358    5.9231    4.7719    0.1043
  6.591064    6.4711   6.0282   5.8000   5.5303   1.1906   1.0840   999.0000   999.0000   999.0000  999.0000    6.3631    6.0445    4.7936    0.1097
  6.602060    6.7481   6.4447   6.0131   5.8040   1.1725   1.0686   999.0000   999.0000   999.0000  999.0000    6.4924    6.1697    4.9105    0.1067
  6.612784    7.1715   7.0404   6.3471   6.2086   1.1538   1.0527   999.0000   999.0000   999.0000  999.0000    6.7124    6.3518    5.0944    0.1022
  6.623249    7.3716   7.2699   6.4926   6.3629   1.1541   1.0516   999.0000   999.0000   999.0000  999.0000    6.8588    6.4788    5.1764    0.1032
  6.633469    7.5239   7.4287   6.5991   6.4673   1.1570   1.0525   999.0000   999.0000   999.0000  999.0000    6.9817    6.5861    5.2375    0.1048
  6.643453    7.6147   7.5258   6.6626   6.5309   1.1583   1.0528   999.0000   999.0000   999.0000  999.0000    7.0528    6.6482    5.2737    0.1057
  6.653213    7.6595   7.5718   6.6930   6.5605   1.1593   1.0531   999.0000   999.0000   999.0000  999.0000    7.0887    6.6796    5.2909    0.1062
  6.662758    7.7680   7.6833   6.7678   6.6331   1.1617   1.0539   999.0000   999.0000   999.0000  999.0000    7.1762    6.7558    5.3336    0.1075
  6.672098    7.8565   7.7737   6.8291   6.6925   1.1637   1.0547   999.0000   999.0000   999.0000  999.0000    7.2480    6.8184    5.3688    0.1085
  6.681241    7.9630   7.8826   6.9029   6.7640   1.1662   1.0556   999.0000   999.0000   999.0000  999.0000    7.3344    6.8938    5.4114    0.1098
  6.690196    8.0583   7.9806   6.9690   6.8283   1.1683   1.0563   999.0000   999.0000   999.0000  999.0000    7.4114    6.9608    5.4496    0.1109
  6.698970    8.0903   8.0139   6.9911   6.8499   1.1690   1.0566   999.0000   999.0000   999.0000  999.0000    7.4369    6.9829    5.4623    0.1113
  6.720160    8.2334   8.1593   7.0894   6.9445   1.1726   1.0580   999.0000   999.0000   999.0000  999.0000    7.5542    7.0846    5.5194    0.1130
  6.740363    8.3790   8.3082   7.1902   7.0419   1.1761   1.0593   999.0000   999.0000   999.0000  999.0000    7.6733    7.1884    5.5785    0.1148
  6.759668    8.5967   8.5293   7.3411   7.1869   1.1818   1.0615   999.0000   999.0000   999.0000  999.0000    7.8532    7.3455    5.6678    0.1175
  6.778151    8.8129   8.7508   7.4913   7.3323   1.1872   1.0635   999.0000   999.0000   999.0000  999.0000    8.0311    7.5005    5.7575    0.1202
  6.795880    8.9720   8.9132   7.6017   7.4388   1.1915   1.0651   999.0000   999.0000   999.0000  999.0000    8.1628    7.6152    5.8239    0.1222
  6.812913    9.1343   9.0791   7.7143   7.5475   1.1958   1.0668   999.0000   999.0000   999.0000  999.0000    8.2972    7.7323    5.8920    0.1242
  6.829304    9.3486   9.2998   7.8640   7.6928   1.2014   1.0688   999.0000   999.0000   999.0000  999.0000    8.4741    7.8865    5.9834    0.1268
  6.845098    9.4580   9.4114   7.9404   7.7664   1.2043   1.0699   999.0000   999.0000   999.0000  999.0000    8.5647    7.9656    6.0306    0.1281
  6.860338    9.5653   9.5241   8.0158   7.8409   1.2068   1.0708   999.0000   999.0000   999.0000  999.0000    8.6519    8.0414    6.0766    0.1294
  6.875061    9.6786   9.6427   8.0952   7.9191   1.2097   1.0718   999.0000   999.0000   999.0000  999.0000    8.7444    8.1219    6.1252    0.1307
  6.903090    9.9671   9.9449   8.2976   8.1184   1.2170   1.0743   999.0000   999.0000   999.0000  999.0000    8.9805    8.3274    6.2503    0.1341
  6.929419   10.0394  10.0203   8.3476   8.1674   1.2189   1.0750   999.0000   999.0000   999.0000  999.0000    9.0393    8.3784    6.2810    0.1350
  6.954243   10.0511  10.0306   8.3547   8.1734   1.2196   1.0753   999.0000   999.0000   999.0000  999.0000    9.0494    8.3871    6.2853    0.1352
  6.977724   10.0520  10.0297   8.3543   8.1719   1.2199   1.0755   999.0000   999.0000   999.0000  999.0000    9.0508    8.3881    6.2848    0.1353
  7.000000    9.9137   9.8841   8.2560   8.0748   1.2165   1.0744   999.0000   999.0000   999.0000  999.0000    8.9366    8.2883    6.2230    0.1337
  7.021189    9.6139   9.5682   8.0443   7.8653   1.2092   1.0719   999.0000   999.0000   999.0000  999.0000    8.6907    8.0737    6.0919    0.1303
  7.041393    9.2386   9.1756   7.7805   7.6057   1.2001   1.0687   999.0000   999.0000   999.0000  999.0000    8.3819    7.8042    5.9302    0.1258
  7.060698    9.1325   9.0649   7.7056   7.5323   1.1975   1.0678   999.0000   999.0000   999.0000  999.0000    8.2939    7.7273    5.8843    0.1246
  7.079181    9.1839   9.1154   7.7407   7.5651   1.1991   1.0685   999.0000   999.0000   999.0000  999.0000    8.3369    7.7648    5.9056    0.1253
  7.096910    9.2054   9.1352   7.7548   7.5777   1.2000   1.0689   999.0000   999.0000   999.0000  999.0000    8.3550    7.7807    5.9141    0.1256
  7.113944    9.0445   8.9707   7.6417   7.4687   1.1957   1.0673   999.0000   999.0000   999.0000  999.0000    8.2203    7.6629    5.8444    0.1237
  7.130334    8.9139   8.8366   7.5502   7.3799   1.1925   1.0662   999.0000   999.0000   999.0000  999.0000    8.1125    7.5684    5.7888    0.1221
  7.146128    8.8764   8.7976   7.5237   7.3538   1.1917   1.0659   999.0000   999.0000   999.0000  999.0000    8.0819    7.5415    5.7728    0.1217
  7.161368    8.9789   8.9016   7.5947   7.4218   1.1945   1.0670   999.0000   999.0000   999.0000  999.0000    8.1675    7.6160    5.8158    0.1230
  7.176091    8.9752   8.8973   7.5916   7.4184   1.1946   1.0671   999.0000   999.0000   999.0000  999.0000    8.1648    7.6134    5.8138    0.1230
  7.204120    8.5080   8.4236   7.2657   7.1063   1.1822   1.0623   999.0000   999.0000   999.0000  999.0000    7.7747    7.2725    5.6167    0.1172
  7.230449    8.3187   8.2314   7.1335   6.9797   1.1774   1.0605   999.0000   999.0000   999.0000  999.0000    7.6164    7.1343    5.5374    0.1149
  7.255272    8.5049   8.4197   7.2615   7.1027   1.1823   1.0624   999.0000   999.0000   999.0000  999.0000    7.7688    7.2672    5.6123    0.1172
  7.278754    8.5944   8.5097   7.3224   7.1612   1.1847   1.0634   999.0000   999.0000   999.0000  999.0000    7.8412    7.3305    5.6476    0.1184
  7.301030    8.3083   8.2174   7.1231   6.9687   1.1777   1.0608   999.0000   999.0000   999.0000  999.0000    7.6057    7.1248    5.5295    0.1149
  7.322219    8.0489   7.9513   6.9423   6.7933   1.1717   1.0586   999.0000   999.0000   999.0000  999.0000    7.3931    6.9392    5.4234    0.1118
  7.342422    7.9564   7.8562   6.8773   6.7302   1.1696   1.0579   999.0000   999.0000   999.0000  999.0000    7.3171    6.8724    5.3852    0.1108
  7.361728    7.8993   7.7970   6.8369   6.6908   1.1685   1.0575   999.0000   999.0000   999.0000  999.0000    7.2702    6.8311    5.3613    0.1102
