#                                                     Mon Jul 29 20:39:42 2019
#          I------------------------------------------------------------------------------------------------------------------------I
#          I                                                                                                                        I
#          I      BC_GALAXEV  ---  MODEL PARAMETERS:   Generic file name for this model = cb2018_z004_chab_hr_pmiles_ssp            I
#          I                                                                                                                        I
#          I      TRACKS: Padova 2013 + Marigo 2013, X=0.740, Y=0.256, Z=0.004                                                      I
#          I                                                                                                                        I
#          I      S.F.R.: SSP = Zero Length Burst at t = 0                                                                          I
#          I                                                                                                                        I
#          I                                                                                                                        I
#          I      I.M.F.: Lognormal + power law                                                                                     I
#          I                                                                      mass in      number                               I
#          I                                                  from m     to m     segment    of stars      c                        I
#          I                                        lognormal   0.10     1.00      0.4057      1.3076                               I
#          I                                          x=1.3     1.00   100.00      0.5943      0.1827                               I
#          I                                                                                                                        I
#          I                                                           totals      1.0000      1.4903  0.6710 Mo/star               I
#          I                                                                                                                        I
#          I                                                                                                                        I
#          I                                                                                                                        I
#          I                                                                                                                        I
#          I      LISTED: Rest frame properties                                                                                     I
#          I                                                                                                                        I
#          I                                                                                                                        I
#          I                              (C) 1995-2017 G. Bruzual A. & S. Charlot - All Rights Reserved                            I
#          I------------------------------------------------------------------------------------------------------------------------I
#
#    (1)        (2)      (3)      (4)      (5)      (6)      (7)       (8)        (9)        (10)      (11)      (12)      (13)      (14)      (15)
#
# Index_No.    WO-1:    WO-2:    WO-3:    WO-4:    GC-1:    4000A    DTT-Ca1    DTT-Ca2    DTT-Ca3   DTT-MgI     DM-04     DM-04     DM-04       BH:
# log-age    HdeltaA  HgammaA  HdeltaF  HgammaF  D(4000)    B4_VN   CaII8498   CaII8542   CaII8662   MgI8807   H8_3889   H9_3835  H10_3798     BH-HK
#   (yr)        (A)      (A)      (A)      (A)       .        .         (A)        (A)        (A)       (A)       (A)       (A)       (A)        (A)
  4.000000    4.4558   4.8553   3.2835   3.7177   0.9587   0.9789   999.0000   999.0000   999.0000  999.0000    3.6266    2.1297    0.9514    0.0626
  4.301030    4.4558   4.8553   3.2835   3.7177   0.9587   0.9789   999.0000   999.0000   999.0000  999.0000    3.6266    2.1297    0.9514    0.0626
  4.477121    4.4558   4.8553   3.2835   3.7177   0.9587   0.9789   999.0000   999.0000   999.0000  999.0000    3.6266    2.1297    0.9514    0.0626
  4.602060    4.4558   4.8553   3.2835   3.7177   0.9587   0.9789   999.0000   999.0000   999.0000  999.0000    3.6266    2.1297    0.9514    0.0626
  4.698970    4.4558   4.8553   3.2835   3.7177   0.9587   0.9789   999.0000   999.0000   999.0000  999.0000    3.6266    2.1297    0.9514    0.0626
  4.778151    4.4558   4.8553   3.2835   3.7177   0.9587   0.9789   999.0000   999.0000   999.0000  999.0000    3.6266    2.1297    0.9514    0.0626
  4.845098    4.4507   4.8502   3.2798   3.7141   0.9587   0.9789   999.0000   999.0000   999.0000  999.0000    3.6253    2.1269    0.9501    0.0625
  4.903090    4.4108   4.8257   3.2488   3.6985   0.9579   0.9785   999.0000   999.0000   999.0000  999.0000    3.6074    2.1080    0.9414    0.0621
  4.954243    4.4788   4.8726   3.2993   3.7293   0.9590   0.9790   999.0000   999.0000   999.0000  999.0000    3.6404    2.1384    0.9519    0.0629
  5.000000    4.5983   4.9555   3.3883   3.7837   0.9608   0.9796   999.0000   999.0000   999.0000  999.0000    3.6988    2.1925    0.9713    0.0645
  5.060698    4.6038   4.9580   3.3925   3.7854   0.9608   0.9796   999.0000   999.0000   999.0000  999.0000    3.7006    2.1928    0.9698    0.0646
  5.113944    4.6000   4.9485   3.3914   3.7795   0.9610   0.9798   999.0000   999.0000   999.0000  999.0000    3.7053    2.1875    0.9668    0.0645
  5.161368    4.5960   4.9455   3.3884   3.7775   0.9609   0.9797   999.0000   999.0000   999.0000  999.0000    3.7029    2.1851    0.9654    0.0645
  5.204120    4.5950   4.9447   3.3876   3.7770   0.9609   0.9797   999.0000   999.0000   999.0000  999.0000    3.7023    2.1844    0.9650    0.0645
  5.243038    4.5926   4.9430   3.3859   3.7760   0.9608   0.9797   999.0000   999.0000   999.0000  999.0000    3.7009    2.1829    0.9641    0.0644
  5.255272    4.5912   4.9419   3.3853   3.7757   0.9609   0.9797   999.0000   999.0000   999.0000  999.0000    3.7019    2.1815    0.9635    0.0644
  5.278754    4.5886   4.9393   3.3850   3.7758   0.9611   0.9799   999.0000   999.0000   999.0000  999.0000    3.7064    2.1778    0.9617    0.0644
  5.301030    4.5858   4.9372   3.3831   3.7746   0.9610   0.9799   999.0000   999.0000   999.0000  999.0000    3.7055    2.1760    0.9607    0.0643
  5.397940    4.5860   4.9361   3.3830   3.7740   0.9609   0.9798   999.0000   999.0000   999.0000  999.0000    3.7032    2.1729    0.9572    0.0643
  5.477121    4.5783   4.9383   3.3805   3.7820   0.9613   0.9803   999.0000   999.0000   999.0000  999.0000    3.7168    2.1638    0.9527    0.0642
  5.544068    4.5680   4.9307   3.3727   3.7771   0.9611   0.9802   999.0000   999.0000   999.0000  999.0000    3.7104    2.1576    0.9492    0.0641
  5.602060    4.5595   4.9247   3.3662   3.7733   0.9609   0.9801   999.0000   999.0000   999.0000  999.0000    3.7053    2.1526    0.9463    0.0640
  5.653213    4.5520   4.9192   3.3606   3.7698   0.9607   0.9800   999.0000   999.0000   999.0000  999.0000    3.7008    2.1483    0.9439    0.0639
  5.698970    4.5429   4.9128   3.3537   3.7658   0.9605   0.9799   999.0000   999.0000   999.0000  999.0000    3.6955    2.1431    0.9411    0.0637
  5.740363    4.5378   4.9084   3.3498   3.7628   0.9603   0.9798   999.0000   999.0000   999.0000  999.0000    3.6919    2.1397    0.9390    0.0637
  5.778151    4.5288   4.9020   3.3430   3.7587   0.9601   0.9798   999.0000   999.0000   999.0000  999.0000    3.6865    2.1345    0.9362    0.0636
  5.812913    4.5186   4.8952   3.3354   3.7544   0.9599   0.9797   999.0000   999.0000   999.0000  999.0000    3.6807    2.1287    0.9330    0.0634
  5.845098    4.5123   4.8905   3.3306   3.7514   0.9597   0.9796   999.0000   999.0000   999.0000  999.0000    3.6768    2.1250    0.9309    0.0634
  5.875061    4.6745   4.9991   3.4508   3.8206   0.9619   0.9802   999.0000   999.0000   999.0000  999.0000    3.7500    2.1984    0.9563    0.0655
  5.903090    4.6840   5.0048   3.4577   3.8240   0.9620   0.9802   999.0000   999.0000   999.0000  999.0000    3.7530    2.2019    0.9567    0.0656
  5.929419    4.6734   4.9972   3.4496   3.8191   0.9618   0.9801   999.0000   999.0000   999.0000  999.0000    3.7469    2.1961    0.9537    0.0655
  5.954243    4.6624   4.9891   3.4412   3.8138   0.9615   0.9800   999.0000   999.0000   999.0000  999.0000    3.7402    2.1899    0.9504    0.0653
  5.977724    4.6553   4.9837   3.4358   3.8102   0.9613   0.9800   999.0000   999.0000   999.0000  999.0000    3.7356    2.1856    0.9479    0.0652
  6.000000    4.6412   4.9734   3.4251   3.8034   0.9610   0.9798   999.0000   999.0000   999.0000  999.0000    3.7273    2.1780    0.9440    0.0650
  6.041393    4.6250   4.9609   3.4126   3.7952   0.9606   0.9796   999.0000   999.0000   999.0000  999.0000    3.7162    2.1673    0.9372    0.0648
  6.079181    4.7672   5.0559   3.5175   3.8557   0.9623   0.9801   999.0000   999.0000   999.0000  999.0000    3.7780    2.2295    0.9567    0.0667
  6.113944    4.8681   5.1241   3.5920   3.8994   0.9636   0.9804   999.0000   999.0000   999.0000  999.0000    3.8224    2.2738    0.9706    0.0680
  6.146128    5.0988   5.2824   3.7628   4.0016   0.9667   0.9814   999.0000   999.0000   999.0000  999.0000    3.9279    2.3776    1.0052    0.0710
  6.176091    5.5780   5.6196   4.1188   4.2212   0.9737   0.9836   999.0000   999.0000   999.0000  999.0000    4.1562    2.5998    1.0832    0.0773
  6.204120    5.7426   5.7349   4.2413   4.2966   0.9760   0.9842   999.0000   999.0000   999.0000  999.0000    4.2332    2.6741    1.1073    0.0795
  6.230449    5.7343   5.7262   4.2348   4.2913   0.9754   0.9839   999.0000   999.0000   999.0000  999.0000    4.2237    2.6622    1.0968    0.0794
  6.255272    5.7260   5.7175   4.2283   4.2861   0.9748   0.9836   999.0000   999.0000   999.0000  999.0000    4.2138    2.6497    1.0856    0.0793
  6.278754    5.7230   5.7144   4.2259   4.2843   0.9746   0.9835   999.0000   999.0000   999.0000  999.0000    4.2102    2.6450    1.0813    0.0793
  6.301030    5.7167   5.7077   4.2208   4.2803   0.9741   0.9833   999.0000   999.0000   999.0000  999.0000    4.2025    2.6352    1.0726    0.0792
  6.322219    5.7067   5.6973   4.2129   4.2740   0.9734   0.9830   999.0000   999.0000   999.0000  999.0000    4.1908    2.6205    1.0595    0.0790
  6.342422    5.6972   5.6873   4.2054   4.2679   0.9727   0.9826   999.0000   999.0000   999.0000  999.0000    4.1796    2.6063    1.0469    0.0789
  6.361728    5.6893   5.6791   4.1992   4.2630   0.9721   0.9823   999.0000   999.0000   999.0000  999.0000    4.1703    2.5946    1.0365    0.0788
  6.380211    5.6810   5.6703   4.1925   4.2577   0.9715   0.9820   999.0000   999.0000   999.0000  999.0000    4.1603    2.5819    1.0251    0.0787
  6.397940    5.6714   5.6603   4.1849   4.2517   0.9708   0.9817   999.0000   999.0000   999.0000  999.0000    4.1488    2.5673    1.0121    0.0786
  6.414973    5.6580   5.6461   4.1742   4.2432   0.9699   0.9812   999.0000   999.0000   999.0000  999.0000    4.1328    2.5471    0.9941    0.0784
  6.431364    5.6418   5.6292   4.1613   4.2330   0.9687   0.9807   999.0000   999.0000   999.0000  999.0000    4.1137    2.5229    0.9725    0.0782
  6.447158    5.7133   5.7080   4.2500   4.2737   0.9784   0.9849   999.0000   999.0000   999.0000  999.0000    4.2939    2.7888    1.2362    0.0784
  6.462398    6.5270   6.5187   4.9011   4.8586   1.0378   1.0157   999.0000   999.0000   999.0000  999.0000    5.1706    3.7923    2.1259    0.0953
  6.477121    6.4558   6.3743   4.9119   4.8446   1.0597   1.0294   999.0000   999.0000   999.0000  999.0000    5.2751    3.9931    2.3250    0.1008
  6.491362    6.4151   6.1304   5.0107   4.8864   1.1310   1.0729   999.0000   999.0000   999.0000  999.0000    5.5965    4.5767    2.8296    0.1201
  6.505150    5.5988   5.1695   4.5104   4.3740   1.1424   1.0863   999.0000   999.0000   999.0000  999.0000    5.1164    4.3066    2.5712    0.1213
  6.518514    4.7151   3.9729   3.9562   3.7638   1.1831   1.1237   999.0000   999.0000   999.0000  999.0000    4.6647    4.0479    2.3082    0.1342
  6.531479    4.4431   3.4711   3.7095   3.3739   1.1888   1.1331   999.0000   999.0000   999.0000  999.0000    4.5371    3.8965    2.1273    0.1356
  6.544068    4.3431   3.1602   3.6053   3.1469   1.2051   1.1486   999.0000   999.0000   999.0000  999.0000    4.5432    3.8013    2.0164    0.1392
  6.556303    3.9478   2.5234   3.3238   2.6488   1.2146   1.1614   999.0000   999.0000   999.0000  999.0000    4.4279    3.6548    1.8972    0.1359
  6.568202    3.4297   1.7940   3.0885   2.1208   1.2425   1.1884   999.0000   999.0000   999.0000  999.0000    4.2430    3.6457    1.8197    0.1438
  6.579783    2.7753   0.8657   2.7270   1.5522   1.2806   1.2243   999.0000   999.0000   999.0000  999.0000    3.8561    3.3685    1.5159    0.1501
  6.591064    3.2166   1.6652   3.0600   2.2518   1.2783   1.2105   999.0000   999.0000   999.0000  999.0000    4.0500    3.6755    1.7894    0.1527
  6.602060    3.1088   1.1239   2.8164   1.9260   1.3092   1.2405   999.0000   999.0000   999.0000  999.0000    4.1690    3.5627    1.6408    0.1649
  6.612784    3.5037   1.8290   3.0826   2.4801   1.2927   1.2193   999.0000   999.0000   999.0000  999.0000    4.2924    3.7856    1.8496    0.1664
  6.623249    4.0043   2.6463   3.3785   2.9961   1.2532   1.1814   999.0000   999.0000   999.0000  999.0000    4.4684    3.9346    2.1234    0.1588
  6.633469    3.7444   2.4321   3.1641   2.8525   1.2452   1.1765   999.0000   999.0000   999.0000  999.0000    4.1992    3.7105    1.9505    0.1542
  6.643453    3.8856   2.7573   3.3550   3.1030   1.2436   1.1722   999.0000   999.0000   999.0000  999.0000    4.2631    3.8672    2.0433    0.1523
  6.653213    4.1976   3.4209   3.7570   3.6573   1.2380   1.1609   999.0000   999.0000   999.0000  999.0000    4.4677    4.1750    2.3381    0.1478
  6.662758    4.5167   3.8418   3.9349   3.8560   1.2342   1.1548   999.0000   999.0000   999.0000  999.0000    4.5772    4.2882    2.3488    0.1468
  6.672098    5.1131   4.4996   4.2850   4.2000   1.2355   1.1503   999.0000   999.0000   999.0000  999.0000    4.9247    4.5295    2.5143    0.1487
  6.681241    6.3071   5.7835   5.0248   4.9248   1.2393   1.1428   999.0000   999.0000   999.0000  999.0000    5.7097    5.0254    2.9670    0.1535
  6.690196    6.5556   5.9325   5.1930   5.0350   1.2418   1.1441   999.0000   999.0000   999.0000  999.0000    5.9982    5.1239    3.1623    0.1562
  6.698970    4.7993   3.8396   3.9640   3.6947   1.2396   1.1614   999.0000   999.0000   999.0000  999.0000    4.8071    4.2823    2.2977    0.1521
  6.720160    5.0393   4.0125   4.0787   3.7324   1.2290   1.1535   999.0000   999.0000   999.0000  999.0000    5.0366    4.3862    2.4579    0.1510
  6.740363    5.3446   4.4821   4.2888   3.9654   1.2089   1.1351   999.0000   999.0000   999.0000  999.0000    5.2059    4.5143    2.6210    0.1427
  6.759668    5.6728   4.9781   4.5082   4.1999   1.1858   1.1153   999.0000   999.0000   999.0000  999.0000    5.3759    4.6203    2.7628    0.1339
  6.778151    5.8741   5.2538   4.6372   4.3095   1.1711   1.1033   999.0000   999.0000   999.0000  999.0000    5.5109    4.6922    2.8771    0.1281
  6.795880    6.0178   5.4716   4.7276   4.3844   1.1553   1.0913   999.0000   999.0000   999.0000  999.0000    5.5945    4.7236    2.9490    0.1221
  6.812913    6.3201   5.8510   4.9218   4.5893   1.1512   1.0859   999.0000   999.0000   999.0000  999.0000    5.7734    4.8407    3.0637    0.1210
  6.829304    6.4798   6.0410   5.0195   4.6560   1.1358   1.0755   999.0000   999.0000   999.0000  999.0000    5.7995    4.7582    3.0058    0.1160
  6.845098    6.7636   6.5096   5.1868   4.8976   1.1073   1.0528   999.0000   999.0000   999.0000  999.0000    5.8602    4.7602    3.0562    0.1070
  6.860338    6.7838   6.5683   5.2035   4.9196   1.1048   1.0505   999.0000   999.0000   999.0000  999.0000    5.8841    4.7998    3.1049    0.1056
  6.875061    6.7762   6.5973   5.2017   4.9235   1.1010   1.0476   999.0000   999.0000   999.0000  999.0000    5.8843    4.8155    3.1327    0.1038
  6.903090    7.0414   6.9415   5.3650   5.1215   1.1038   1.0472   999.0000   999.0000   999.0000  999.0000    6.0476    4.9550    3.2475    0.1056
  6.929419    7.3881   7.2823   5.5840   5.3591   1.1215   1.0564   999.0000   999.0000   999.0000  999.0000    6.2838    5.1444    3.3780    0.1131
  6.954243    7.2962   7.1751   5.5334   5.3008   1.1202   1.0562   999.0000   999.0000   999.0000  999.0000    6.2312    5.1083    3.3543    0.1122
  6.977724    7.0266   6.8902   5.3635   5.1103   1.1092   1.0510   999.0000   999.0000   999.0000  999.0000    6.0528    4.9660    3.2512    0.1073
  7.000000    7.1245   6.9994   5.4181   5.1710   1.1111   1.0516   999.0000   999.0000   999.0000  999.0000    6.1084    5.0027    3.2731    0.1084
  7.021189    6.8763   6.7286   5.2610   4.9996   1.1048   1.0494   999.0000   999.0000   999.0000  999.0000    5.9505    4.8880    3.1809    0.1054
  7.041393    6.5911   6.4296   5.0839   4.7968   1.0969   1.0456   999.0000   999.0000   999.0000  999.0000    5.7893    4.7953    3.1218    0.1008
  7.060698    6.5196   6.3599   5.0326   4.7351   1.0895   1.0412   999.0000   999.0000   999.0000  999.0000    5.7250    4.7274    3.0728    0.0978
  7.079181    6.5112   6.3752   5.0126   4.7144   1.0754   1.0325   999.0000   999.0000   999.0000  999.0000    5.6591    4.6070    2.9832    0.0933
  7.096910    6.4706   6.3277   4.9753   4.6732   1.0713   1.0305   999.0000   999.0000   999.0000  999.0000    5.6085    4.5433    2.9226    0.0921
  7.113944    6.8319   6.6745   5.2285   4.9399   1.0947   1.0432   999.0000   999.0000   999.0000  999.0000    5.8949    4.8083    3.1312    0.1012
  7.130334    7.1068   6.9244   5.4203   5.1454   1.1145   1.0542   999.0000   999.0000   999.0000  999.0000    6.1049    4.9924    3.2663    0.1092
  7.146128    7.0805   6.8813   5.4051   5.1263   1.1153   1.0551   999.0000   999.0000   999.0000  999.0000    6.0871    4.9747    3.2483    0.1095
  7.161368    6.6885   6.4879   5.1371   4.8381   1.0925   1.0433   999.0000   999.0000   999.0000  999.0000    5.7869    4.7041    3.0366    0.1005
  7.176091    6.3294   6.1255   4.8946   4.5448   1.0720   1.0315   999.0000   999.0000   999.0000  999.0000    5.5560    4.5244    2.9212    0.0904
  7.204120    6.3602   6.1244   4.9261   4.5425   1.0781   1.0346   999.0000   999.0000   999.0000  999.0000    5.6278    4.6163    3.0119    0.0912
  7.230449    6.3898   6.1186   4.9585   4.5448   1.0856   1.0387   999.0000   999.0000   999.0000  999.0000    5.6995    4.7091    3.1008    0.0925
  7.255272    6.4180   6.1267   4.9862   4.5528   1.0910   1.0416   999.0000   999.0000   999.0000  999.0000    5.7562    4.7817    3.1699    0.0935
  7.278754    6.6837   6.3180   5.1672   4.7649   1.1223   1.0615   999.0000   999.0000   999.0000  999.0000    5.9545    4.9469    3.2476    0.1071
  7.301030    6.7170   6.1899   5.1791   4.7262   1.1381   1.0733   999.0000   999.0000   999.0000  999.0000    5.9726    4.8986    3.1544    0.1137
  7.322219    6.1608   5.3855   4.7918   4.1750   1.1213   1.0683   999.0000   999.0000   999.0000  999.0000    5.5831    4.4675    2.7846    0.1052
  7.342422    5.8891   4.9997   4.6185   3.9355   1.1210   1.0707   999.0000   999.0000   999.0000  999.0000    5.4294    4.3268    2.6673    0.1033
  7.361728    5.8951   4.9931   4.6312   3.9320   1.1255   1.0731   999.0000   999.0000   999.0000  999.0000    5.4710    4.3890    2.7287    0.1038
