#                                                     Mon Jul 29 20:42:42 2019
#          I------------------------------------------------------------------------------------------------------------------------I
#          I                                                                                                                        I
#          I      BC_GALAXEV  ---  MODEL PARAMETERS:   Generic file name for this model = cb2018_z030_chab_hr_smiles_ssp            I
#          I                                                                                                                        I
#          I      TRACKS: Padova 2013 + Marigo 2013, X=0.668, Y=0.302, Z=0.030                                                      I
#          I                                                                                                                        I
#          I      S.F.R.: SSP = Zero Length Burst at t = 0                                                                          I
#          I                                                                                                                        I
#          I                                                                                                                        I
#          I      I.M.F.: Lognormal + power law                                                                                     I
#          I                                                                      mass in      number                               I
#          I                                                  from m     to m     segment    of stars      c                        I
#          I                                        lognormal   0.10     1.00      0.4057      1.3076                               I
#          I                                          x=1.3     1.00   100.00      0.5943      0.1827                               I
#          I                                                                                                                        I
#          I                                                           totals      1.0000      1.4903  0.6710 Mo/star               I
#          I                                                                                                                        I
#          I                                                                                                                        I
#          I                                                                                                                        I
#          I                                                                                                                        I
#          I      LISTED: Rest frame properties                                                                                     I
#          I                                                                                                                        I
#          I                                                                                                                        I
#          I                              (C) 1995-2017 G. Bruzual A. & S. Charlot - All Rights Reserved                            I
#          I------------------------------------------------------------------------------------------------------------------------I
#
#    (1)        (2)      (3)      (4)      (5)      (6)      (7)       (8)        (9)        (10)      (11)      (12)      (13)      (14)      (15)
#
# Index_No.    WO-1:    WO-2:    WO-3:    WO-4:    GC-1:    4000A    DTT-Ca1    DTT-Ca2    DTT-Ca3   DTT-MgI     DM-04     DM-04     DM-04       BH:
# log-age    HdeltaA  HgammaA  HdeltaF  HgammaF  D(4000)    B4_VN   CaII8498   CaII8542   CaII8662   MgI8807   H8_3889   H9_3835  H10_3798     BH-HK
#   (yr)        (A)      (A)      (A)      (A)       .        .         (A)        (A)        (A)       (A)       (A)       (A)       (A)        (A)
  4.000000    6.7386   6.7636   5.7333   5.9469   1.0577   0.9983   999.0000   999.0000   999.0000  999.0000    6.5900    5.0861    4.1735    0.0893
  4.301030    6.7386   6.7636   5.7333   5.9469   1.0577   0.9983   999.0000   999.0000   999.0000  999.0000    6.5900    5.0861    4.1735    0.0893
  4.477121    6.7386   6.7636   5.7333   5.9469   1.0577   0.9983   999.0000   999.0000   999.0000  999.0000    6.5900    5.0861    4.1735    0.0893
  4.602060    6.7386   6.7636   5.7333   5.9469   1.0577   0.9983   999.0000   999.0000   999.0000  999.0000    6.5900    5.0861    4.1735    0.0893
  4.698970    6.7386   6.7636   5.7333   5.9469   1.0577   0.9983   999.0000   999.0000   999.0000  999.0000    6.5900    5.0861    4.1735    0.0893
  4.778151    6.7386   6.7636   5.7333   5.9469   1.0577   0.9983   999.0000   999.0000   999.0000  999.0000    6.5900    5.0861    4.1735    0.0893
  4.845098    6.7387   6.7636   5.7333   5.9470   1.0577   0.9983   999.0000   999.0000   999.0000  999.0000    6.5900    5.0862    4.1735    0.0893
  4.903090    6.7382   6.7632   5.7331   5.9467   1.0577   0.9983   999.0000   999.0000   999.0000  999.0000    6.5898    5.0859    4.1733    0.0893
  4.954243    6.7375   6.7626   5.7326   5.9463   1.0577   0.9983   999.0000   999.0000   999.0000  999.0000    6.5895    5.0854    4.1731    0.0893
  5.000000    6.7371   6.7621   5.7323   5.9461   1.0577   0.9982   999.0000   999.0000   999.0000  999.0000    6.5893    5.0851    4.1729    0.0893
  5.060698    6.7360   6.7611   5.7316   5.9455   1.0576   0.9982   999.0000   999.0000   999.0000  999.0000    6.5888    5.0843    4.1725    0.0893
  5.113944    6.7348   6.7599   5.7308   5.9447   1.0576   0.9982   999.0000   999.0000   999.0000  999.0000    6.5882    5.0834    4.1720    0.0892
  5.161368    6.7346   6.7597   5.7307   5.9446   1.0575   0.9982   999.0000   999.0000   999.0000  999.0000    6.5881    5.0833    4.1720    0.0892
  5.204120    6.7345   6.7596   5.7307   5.9446   1.0575   0.9982   999.0000   999.0000   999.0000  999.0000    6.5881    5.0832    4.1719    0.0892
  5.243038    6.7343   6.7594   5.7305   5.9445   1.0575   0.9981   999.0000   999.0000   999.0000  999.0000    6.5880    5.0831    4.1718    0.0892
  5.255272    6.7337   6.7588   5.7302   5.9441   1.0575   0.9981   999.0000   999.0000   999.0000  999.0000    6.5877    5.0827    4.1716    0.0892
  5.278754    6.7332   6.7583   5.7298   5.9438   1.0575   0.9981   999.0000   999.0000   999.0000  999.0000    6.5875    5.0823    4.1714    0.0892
  5.301030    6.7330   6.7582   5.7297   5.9438   1.0575   0.9981   999.0000   999.0000   999.0000  999.0000    6.5874    5.0822    4.1714    0.0892
  5.397940    6.7319   6.7571   5.7290   5.9431   1.0574   0.9981   999.0000   999.0000   999.0000  999.0000    6.5869    5.0814    4.1709    0.0892
  5.477121    6.7301   6.7554   5.7279   5.9421   1.0573   0.9980   999.0000   999.0000   999.0000  999.0000    6.5861    5.0801    4.1703    0.0891
  5.544068    6.7288   6.7541   5.7271   5.9413   1.0573   0.9980   999.0000   999.0000   999.0000  999.0000    6.5855    5.0792    4.1698    0.0891
  5.602060    6.7276   6.7529   5.7262   5.9406   1.0572   0.9979   999.0000   999.0000   999.0000  999.0000    6.5849    5.0783    4.1693    0.0890
  5.653213    6.7273   6.7526   5.7261   5.9405   1.0572   0.9979   999.0000   999.0000   999.0000  999.0000    6.5847    5.0781    4.1692    0.0890
  5.698970    6.7270   6.7523   5.7259   5.9403   1.0572   0.9979   999.0000   999.0000   999.0000  999.0000    6.5846    5.0779    4.1691    0.0890
  5.740363    6.7267   6.7521   5.7257   5.9401   1.0572   0.9979   999.0000   999.0000   999.0000  999.0000    6.5845    5.0777    4.1690    0.0890
  5.778151    6.7260   6.7514   5.7253   5.9397   1.0571   0.9979   999.0000   999.0000   999.0000  999.0000    6.5841    5.0772    4.1687    0.0890
  5.812913    6.7251   6.7505   5.7247   5.9392   1.0571   0.9978   999.0000   999.0000   999.0000  999.0000    6.5837    5.0766    4.1683    0.0890
  5.845098    6.7232   6.7487   5.7235   5.9381   1.0570   0.9978   999.0000   999.0000   999.0000  999.0000    6.5828    5.0752    4.1676    0.0889
  5.875061    6.7222   6.7477   5.7228   5.9375   1.0569   0.9977   999.0000   999.0000   999.0000  999.0000    6.5824    5.0745    4.1672    0.0889
  5.903090    6.7211   6.7466   5.7221   5.9369   1.0569   0.9977   999.0000   999.0000   999.0000  999.0000    6.5819    5.0737    4.1668    0.0889
  5.929419    6.7197   6.7453   5.7213   5.9361   1.0568   0.9977   999.0000   999.0000   999.0000  999.0000    6.5812    5.0728    4.1663    0.0888
  5.954243    6.7186   6.7442   5.7205   5.9355   1.0567   0.9976   999.0000   999.0000   999.0000  999.0000    6.5807    5.0720    4.1659    0.0888
  5.977724    6.7178   6.7435   5.7201   5.9351   1.0567   0.9976   999.0000   999.0000   999.0000  999.0000    6.5804    5.0715    4.1656    0.0888
  6.000000    6.7175   6.7432   5.7199   5.9349   1.0567   0.9976   999.0000   999.0000   999.0000  999.0000    6.5802    5.0712    4.1655    0.0888
  6.041393    6.7155   6.7412   5.7186   5.9337   1.0566   0.9975   999.0000   999.0000   999.0000  999.0000    6.5793    5.0698    4.1647    0.0887
  6.079181    6.7118   6.7376   5.7162   5.9316   1.0564   0.9974   999.0000   999.0000   999.0000  999.0000    6.5775    5.0672    4.1633    0.0886
  6.113944    6.7090   6.7349   5.7144   5.9300   1.0563   0.9973   999.0000   999.0000   999.0000  999.0000    6.5762    5.0652    4.1622    0.0885
  6.146128    6.7062   6.7322   5.7127   5.9284   1.0561   0.9972   999.0000   999.0000   999.0000  999.0000    6.5749    5.0633    4.1612    0.0885
  6.176091    6.7039   6.7299   5.7112   5.9270   1.0560   0.9971   999.0000   999.0000   999.0000  999.0000    6.5738    5.0616    4.1603    0.0884
  6.204120    6.7012   6.7274   5.7095   5.9255   1.0559   0.9970   999.0000   999.0000   999.0000  999.0000    6.5726    5.0597    4.1593    0.0883
  6.230449    6.6974   6.7237   5.7071   5.9234   1.0557   0.9969   999.0000   999.0000   999.0000  999.0000    6.5709    5.0571    4.1578    0.0882
  6.255272    6.6951   6.7214   5.7056   5.9220   1.0556   0.9968   999.0000   999.0000   999.0000  999.0000    6.5698    5.0554    4.1569    0.0882
  6.278754    6.6915   6.7180   5.7033   5.9200   1.0554   0.9967   999.0000   999.0000   999.0000  999.0000    6.5681    5.0529    4.1556    0.0881
  6.301030    6.6874   6.7140   5.7007   5.9176   1.0552   0.9966   999.0000   999.0000   999.0000  999.0000    6.5662    5.0500    4.1540    0.0880
  6.322219    6.6835   6.7102   5.6982   5.9154   1.0550   0.9964   999.0000   999.0000   999.0000  999.0000    6.5644    5.0473    4.1526    0.0879
  6.342422    6.6794   6.7062   5.6956   5.9130   1.0548   0.9963   999.0000   999.0000   999.0000  999.0000    6.5625    5.0444    4.1510    0.0877
  6.361728    6.6754   6.7023   5.6930   5.9107   1.0546   0.9962   999.0000   999.0000   999.0000  999.0000    6.5606    5.0415    4.1495    0.0876
  6.380211    6.6715   6.6985   5.6906   5.9085   1.0544   0.9960   999.0000   999.0000   999.0000  999.0000    6.5588    5.0388    4.1480    0.0875
  6.397940    6.6691   6.6962   5.6891   5.9072   1.0543   0.9960   999.0000   999.0000   999.0000  999.0000    6.5577    5.0371    4.1471    0.0875
  6.414973    6.5324   6.5329   5.5557   5.7656   1.0519   0.9949   999.0000   999.0000   999.0000  999.0000    6.4117    4.9429    4.0814    0.0868
  6.431364    6.5825   6.5080   5.5781   5.7454   1.0523   0.9954   999.0000   999.0000   999.0000  999.0000    6.4108    4.9595    4.0929    0.0864
  6.447158    6.1786   5.9111   5.1364   5.2315   1.0455   0.9925   999.0000   999.0000   999.0000  999.0000    5.9099    4.6866    3.9033    0.0837
  6.462398    6.0460   5.4128   4.9022   4.8308   1.0445   0.9955   999.0000   999.0000   999.0000  999.0000    5.5762    4.5846    3.8506    0.0823
  6.477121    6.0839   5.5112   4.9717   4.9288   1.0450   0.9958   999.0000   999.0000   999.0000  999.0000    5.6737    4.5991    3.8639    0.0808
  6.491362    6.0753   5.4998   4.9815   4.9158   1.0434   0.9952   999.0000   999.0000   999.0000  999.0000    5.6433    4.5358    3.8285    0.0796
  6.505150    6.0997   5.5457   5.0105   4.9577   1.0429   0.9950   999.0000   999.0000   999.0000  999.0000    5.6853    4.5331    3.8433    0.0790
  6.518514    6.1667   5.6865   5.1005   5.0785   1.0442   0.9958   999.0000   999.0000   999.0000  999.0000    5.8002    4.5750    3.8723    0.0797
  6.531479    6.2673   5.7987   5.1845   5.1656   1.0452   0.9956   999.0000   999.0000   999.0000  999.0000    5.8833    4.6337    3.9165    0.0801
  6.544068    6.2976   5.8623   5.2335   5.2174   1.0451   0.9951   999.0000   999.0000   999.0000  999.0000    5.9204    4.6373    3.9118    0.0800
  6.556303    6.2938   5.8673   5.2357   5.2317   1.0462   0.9974   999.0000   999.0000   999.0000  999.0000    5.9517    4.6343    3.8883    0.0812
  6.568202    6.3881   5.9012   5.2895   5.2444   1.0460   0.9959   999.0000   999.0000   999.0000  999.0000    5.9515    4.6695    3.9287    0.0808
  6.579783    6.4373   6.0568   5.3624   5.3879   1.0495   0.9987   999.0000   999.0000   999.0000  999.0000    6.1392    4.7600    3.9768    0.0827
  6.591064    6.4940   6.0419   5.3830   5.3661   1.0491   0.9979   999.0000   999.0000   999.0000  999.0000    6.0889    4.7674    4.0037    0.0829
  6.602060    6.4832   6.2049   5.4436   5.5271   1.0559   1.0023   999.0000   999.0000   999.0000  999.0000    6.2828    4.8785    4.0482    0.0865
  6.612784    6.5237   6.2136   5.4642   5.5479   1.0628   1.0077   999.0000   999.0000   999.0000  999.0000    6.3003    4.9259    4.0857    0.0896
  6.623249    6.4771   5.9472   5.3589   5.3431   1.0649   1.0113   999.0000   999.0000   999.0000  999.0000    6.1157    4.8930    4.0582    0.0909
  6.633469    6.4710   6.0966   5.4203   5.4768   1.0674   1.0121   999.0000   999.0000   999.0000  999.0000    6.2688    4.9371    4.0817    0.0919
  6.643453    6.4257   5.9972   5.3622   5.3990   1.0714   1.0164   999.0000   999.0000   999.0000  999.0000    6.2283    4.9151    4.0537    0.0925
  6.653213    6.3842   5.9043   5.2973   5.3169   1.0748   1.0201   999.0000   999.0000   999.0000  999.0000    6.1670    4.8914    4.0187    0.0931
  6.662758    6.3220   5.8536   5.2494   5.2728   1.0789   1.0238   999.0000   999.0000   999.0000  999.0000    6.1116    4.8726    3.9872    0.0945
  6.672098    6.2742   5.8433   5.2238   5.2601   1.0831   1.0273   999.0000   999.0000   999.0000  999.0000    6.0797    4.8629    3.9660    0.0961
  6.681241    6.2589   5.8510   5.2441   5.2803   1.0822   1.0260   999.0000   999.0000   999.0000  999.0000    6.1315    4.8817    3.9841    0.0957
  6.690196    6.2514   5.8884   5.2839   5.3259   1.0808   1.0238   999.0000   999.0000   999.0000  999.0000    6.2073    4.9118    4.0104    0.0952
  6.698970    6.1436   5.7729   5.2796   5.3011   1.0862   1.0271   999.0000   999.0000   999.0000  999.0000    6.2751    4.9579    4.0358    0.0973
  6.720160    6.0297   5.4127   5.2369   5.1278   1.0911   1.0309   999.0000   999.0000   999.0000  999.0000    6.3569    5.0182    4.0839    0.0981
  6.740363    6.1539   5.4047   5.2837   5.1114   1.0831   1.0242   999.0000   999.0000   999.0000  999.0000    6.3667    5.0051    4.0978    0.0949
  6.759668    6.2226   5.5136   5.3112   5.1595   1.0798   1.0219   999.0000   999.0000   999.0000  999.0000    6.3561    4.9992    4.0965    0.0940
  6.778151    6.3203   5.8502   5.4002   5.3576   1.0767   1.0190   999.0000   999.0000   999.0000  999.0000    6.3910    5.0198    4.1068    0.0945
  6.795880    6.3783   6.0631   5.4620   5.4817   1.0746   1.0172   999.0000   999.0000   999.0000  999.0000    6.4267    5.0366    4.1194    0.0949
  6.812913    6.4018   6.1632   5.5082   5.5432   1.0733   1.0159   999.0000   999.0000   999.0000  999.0000    6.4777    5.0565    4.1388    0.0950
  6.829304    6.3840   6.1317   5.5361   5.5348   1.0739   1.0159   999.0000   999.0000   999.0000  999.0000    6.5432    5.0847    4.1660    0.0953
  6.845098    6.3518   6.1161   5.5431   5.5330   1.0766   1.0181   999.0000   999.0000   999.0000  999.0000    6.5676    5.1051    4.1789    0.0968
  6.860338    6.3607   6.1425   5.5597   5.5546   1.0772   1.0183   999.0000   999.0000   999.0000  999.0000    6.5832    5.1186    4.1877    0.0973
  6.875061    6.3547   6.1232   5.5574   5.5437   1.0780   1.0189   999.0000   999.0000   999.0000  999.0000    6.5842    5.1223    4.1897    0.0975
  6.903090    6.3419   6.0611   5.5519   5.5112   1.0796   1.0200   999.0000   999.0000   999.0000  999.0000    6.5855    5.1298    4.1941    0.0979
  6.929419    6.3674   6.0465   5.5637   5.5106   1.0794   1.0190   999.0000   999.0000   999.0000  999.0000    6.5884    5.1359    4.1983    0.0975
  6.954243    6.3843   6.0482   5.5731   5.5143   1.0800   1.0192   999.0000   999.0000   999.0000  999.0000    6.5955    5.1454    4.2033    0.0978
  6.977724    6.4027   6.0502   5.5834   5.5188   1.0807   1.0194   999.0000   999.0000   999.0000  999.0000    6.6044    5.1558    4.2090    0.0980
  7.000000    6.4450   6.1012   5.6061   5.5512   1.0806   1.0188   999.0000   999.0000   999.0000  999.0000    6.6173    5.1688    4.2162    0.0981
  7.021189    6.4777   6.1443   5.6243   5.5788   1.0807   1.0186   999.0000   999.0000   999.0000  999.0000    6.6280    5.1814    4.2232    0.0982
  7.041393    6.5365   6.2341   5.6541   5.6353   1.0796   1.0170   999.0000   999.0000   999.0000  999.0000    6.6368    5.1913    4.2291    0.0979
  7.060698    6.5590   6.2655   5.6657   5.6551   1.0794   1.0167   999.0000   999.0000   999.0000  999.0000    6.6388    5.1970    4.2324    0.0979
  7.079181    6.5607   6.2568   5.6666   5.6518   1.0801   1.0171   999.0000   999.0000   999.0000  999.0000    6.6385    5.2018    4.2352    0.0981
  7.096910    6.5774   6.2651   5.6762   5.6596   1.0807   1.0173   999.0000   999.0000   999.0000  999.0000    6.6463    5.2126    4.2412    0.0983
  7.113944    6.6120   6.3003   5.6950   5.6846   1.0809   1.0169   999.0000   999.0000   999.0000  999.0000    6.6584    5.2256    4.2486    0.0984
  7.130334    6.6527   6.3526   5.7173   5.7175   1.0809   1.0164   999.0000   999.0000   999.0000  999.0000    6.6717    5.2392    4.2561    0.0985
  7.146128    6.6664   6.3630   5.7247   5.7250   1.0812   1.0165   999.0000   999.0000   999.0000  999.0000    6.6766    5.2458    4.2596    0.0987
  7.161368    6.6588   6.3378   5.7203   5.7114   1.0820   1.0170   999.0000   999.0000   999.0000  999.0000    6.6752    5.2482    4.2607    0.0989
  7.176091    6.6557   6.3163   5.7190   5.7006   1.0829   1.0177   999.0000   999.0000   999.0000  999.0000    6.6769    5.2534    4.2635    0.0992
  7.204120    6.6480   6.2697   5.7157   5.6776   1.0848   1.0189   999.0000   999.0000   999.0000  999.0000    6.6788    5.2639    4.2693    0.0997
  7.230449    6.6757   6.2846   5.7345   5.6903   1.0862   1.0196   999.0000   999.0000   999.0000  999.0000    6.6973    5.2866    4.2823    0.1004
  7.255272    6.7091   6.3192   5.7571   5.7125   1.0874   1.0203   999.0000   999.0000   999.0000  999.0000    6.7156    5.3098    4.2955    0.1011
  7.278754    6.7222   6.3252   5.7651   5.7157   1.0886   1.0212   999.0000   999.0000   999.0000  999.0000    6.7224    5.3218    4.3017    0.1017
  7.301030    6.7341   6.3428   5.7711   5.7243   1.0892   1.0218   999.0000   999.0000   999.0000  999.0000    6.7223    5.3270    4.3040    0.1020
  7.322219    6.7448   6.3472   5.7777   5.7267   1.0905   1.0228   999.0000   999.0000   999.0000  999.0000    6.7278    5.3379    4.3094    0.1027
  7.342422    6.7677   6.3573   5.7924   5.7335   1.0923   1.0242   999.0000   999.0000   999.0000  999.0000    6.7456    5.3583    4.3199    0.1036
  7.361728    6.7890   6.3724   5.8056   5.7433   1.0944   1.0258   999.0000   999.0000   999.0000  999.0000    6.7603    5.3790    4.3290    0.1047
